creator: /Users/zhuqf/research/WFST/sensitivity/flux_std/skyspectrum/check_skymag.pro
source: /Users/zhuqf/research/WFST/sensitivity/throughput/filter_trans/Johnson-Cousins/V_trans_Johnson.txt
 Wave (AA) Transmission
  4700.00    0.0000000
  4701.00    0.0003026
  4702.00    0.0006102
  4703.00    0.0009224
  4704.00    0.0012389
  4705.00    0.0015594
  4706.00    0.0018836
  4707.00    0.0022112
  4708.00    0.0025418
  4709.00    0.0028751
  4710.00    0.0032108
  4711.00    0.0035486
  4712.00    0.0038883
  4713.00    0.0042293
  4714.00    0.0045716
  4715.00    0.0049147
  4716.00    0.0052583
  4717.00    0.0056022
  4718.00    0.0059459
  4719.00    0.0062893
  4720.00    0.0066320
  4721.00    0.0069736
  4722.00    0.0073140
  4723.00    0.0076527
  4724.00    0.0079894
  4725.00    0.0083238
  4726.00    0.0086557
  4727.00    0.0089847
  4728.00    0.0093105
  4729.00    0.0096327
  4730.00    0.0099511
  4731.00    0.0102653
  4732.00    0.0105750
  4733.00    0.0108799
  4734.00    0.0111797
  4735.00    0.0114739
  4736.00    0.0117624
  4737.00    0.0120447
  4738.00    0.0123206
  4739.00    0.0125896
  4740.00    0.0128515
  4741.00    0.0131059
  4742.00    0.0133525
  4743.00    0.0135909
  4744.00    0.0138207
  4745.00    0.0140416
  4746.00    0.0142533
  4747.00    0.0144553
  4748.00    0.0146474
  4749.00    0.0148291
  4750.00    0.0150000
  4751.00    0.0151601
  4752.00    0.0153100
  4753.00    0.0154508
  4754.00    0.0155834
  4755.00    0.0157089
  4756.00    0.0158282
  4757.00    0.0159423
  4758.00    0.0160522
  4759.00    0.0161588
  4760.00    0.0162631
  4761.00    0.0163662
  4762.00    0.0164689
  4763.00    0.0165722
  4764.00    0.0166771
  4765.00    0.0167846
  4766.00    0.0168956
  4767.00    0.0170112
  4768.00    0.0171323
  4769.00    0.0172598
  4770.00    0.0173949
  4771.00    0.0175383
  4772.00    0.0176912
  4773.00    0.0178545
  4774.00    0.0180293
  4775.00    0.0182164
  4776.00    0.0184170
  4777.00    0.0186320
  4778.00    0.0188625
  4779.00    0.0191095
  4780.00    0.0193739
  4781.00    0.0196569
  4782.00    0.0199595
  4783.00    0.0202827
  4784.00    0.0206276
  4785.00    0.0209953
  4786.00    0.0213868
  4787.00    0.0218032
  4788.00    0.0222457
  4789.00    0.0227153
  4790.00    0.0232131
  4791.00    0.0237404
  4792.00    0.0242981
  4793.00    0.0248875
  4794.00    0.0255098
  4795.00    0.0261661
  4796.00    0.0268576
  4797.00    0.0275855
  4798.00    0.0283510
  4799.00    0.0291554
  4800.00    0.0300000
  4801.00    0.0308855
  4802.00    0.0318109
  4803.00    0.0327747
  4804.00    0.0337755
  4805.00    0.0348117
  4806.00    0.0358821
  4807.00    0.0369850
  4808.00    0.0381193
  4809.00    0.0392833
  4810.00    0.0404758
  4811.00    0.0416954
  4812.00    0.0429407
  4813.00    0.0442104
  4814.00    0.0455031
  4815.00    0.0468174
  4816.00    0.0481522
  4817.00    0.0495059
  4818.00    0.0508775
  4819.00    0.0522654
  4820.00    0.0536685
  4821.00    0.0550854
  4822.00    0.0565149
  4823.00    0.0579557
  4824.00    0.0594065
  4825.00    0.0608660
  4826.00    0.0623330
  4827.00    0.0638062
  4828.00    0.0652844
  4829.00    0.0667662
  4830.00    0.0682505
  4831.00    0.0697359
  4832.00    0.0712213
  4833.00    0.0727053
  4834.00    0.0741867
  4835.00    0.0756642
  4836.00    0.0771367
  4837.00    0.0786027
  4838.00    0.0800612
  4839.00    0.0815107
  4840.00    0.0829500
  4841.00    0.0843778
  4842.00    0.0857930
  4843.00    0.0871941
  4844.00    0.0885799
  4845.00    0.0899491
  4846.00    0.0913003
  4847.00    0.0926324
  4848.00    0.0939439
  4849.00    0.0952336
  4850.00    0.0965000
  4851.00    0.0977424
  4852.00    0.0989620
  4853.00    0.1001603
  4854.00    0.1013392
  4855.00    0.1025002
  4856.00    0.1036451
  4857.00    0.1047754
  4858.00    0.1058928
  4859.00    0.1069990
  4860.00    0.1080956
  4861.00    0.1091842
  4862.00    0.1102664
  4863.00    0.1113439
  4864.00    0.1124183
  4865.00    0.1134912
  4866.00    0.1145643
  4867.00    0.1156391
  4868.00    0.1167173
  4869.00    0.1178005
  4870.00    0.1188903
  4871.00    0.1199884
  4872.00    0.1210964
  4873.00    0.1222159
  4874.00    0.1233486
  4875.00    0.1244962
  4876.00    0.1256601
  4877.00    0.1268422
  4878.00    0.1280441
  4879.00    0.1292675
  4880.00    0.1305140
  4881.00    0.1317853
  4882.00    0.1330832
  4883.00    0.1344093
  4884.00    0.1357654
  4885.00    0.1371532
  4886.00    0.1385745
  4887.00    0.1400310
  4888.00    0.1415244
  4889.00    0.1430567
  4890.00    0.1446295
  4891.00    0.1462448
  4892.00    0.1479043
  4893.00    0.1496099
  4894.00    0.1513635
  4895.00    0.1531669
  4896.00    0.1550222
  4897.00    0.1569311
  4898.00    0.1588958
  4899.00    0.1609181
  4900.00    0.1630000
  4901.00    0.1651430
  4902.00    0.1673457
  4903.00    0.1696064
  4904.00    0.1719231
  4905.00    0.1742941
  4906.00    0.1767174
  4907.00    0.1791914
  4908.00    0.1817143
  4909.00    0.1842843
  4910.00    0.1868996
  4911.00    0.1895586
  4912.00    0.1922597
  4913.00    0.1950010
  4914.00    0.1977809
  4915.00    0.2005979
  4916.00    0.2034502
  4917.00    0.2063363
  4918.00    0.2092546
  4919.00    0.2122034
  4920.00    0.2151812
  4921.00    0.2181864
  4922.00    0.2212175
  4923.00    0.2242729
  4924.00    0.2273510
  4925.00    0.2304505
  4926.00    0.2335697
  4927.00    0.2367071
  4928.00    0.2398613
  4929.00    0.2430307
  4930.00    0.2462138
  4931.00    0.2494092
  4932.00    0.2526154
  4933.00    0.2558309
  4934.00    0.2590543
  4935.00    0.2622840
  4936.00    0.2655187
  4937.00    0.2687568
  4938.00    0.2719968
  4939.00    0.2752374
  4940.00    0.2784771
  4941.00    0.2817144
  4942.00    0.2849478
  4943.00    0.2881759
  4944.00    0.2913972
  4945.00    0.2946102
  4946.00    0.2978136
  4947.00    0.3010057
  4948.00    0.3041851
  4949.00    0.3073504
  4950.00    0.3105000
  4951.00    0.3136328
  4952.00    0.3167491
  4953.00    0.3198495
  4954.00    0.3229345
  4955.00    0.3260049
  4956.00    0.3290611
  4957.00    0.3321039
  4958.00    0.3351337
  4959.00    0.3381512
  4960.00    0.3411570
  4961.00    0.3441515
  4962.00    0.3471354
  4963.00    0.3501093
  4964.00    0.3530737
  4965.00    0.3560291
  4966.00    0.3589761
  4967.00    0.3619153
  4968.00    0.3648472
  4969.00    0.3677724
  4970.00    0.3706913
  4971.00    0.3736046
  4972.00    0.3765127
  4973.00    0.3794162
  4974.00    0.3823157
  4975.00    0.3852116
  4976.00    0.3881045
  4977.00    0.3909949
  4978.00    0.3938833
  4979.00    0.3967703
  4980.00    0.3996564
  4981.00    0.4025422
  4982.00    0.4054280
  4983.00    0.4083145
  4984.00    0.4112023
  4985.00    0.4140917
  4986.00    0.4169834
  4987.00    0.4198778
  4988.00    0.4227755
  4989.00    0.4256771
  4990.00    0.4285830
  4991.00    0.4314938
  4992.00    0.4344100
  4993.00    0.4373322
  4994.00    0.4402609
  4995.00    0.4431966
  4996.00    0.4461399
  4997.00    0.4490914
  4998.00    0.4520515
  4999.00    0.4550208
  5000.00    0.4580000
  5001.00    0.4609894
  5002.00    0.4639891
  5003.00    0.4669989
  5004.00    0.4700188
  5005.00    0.4730486
  5006.00    0.4760884
  5007.00    0.4791379
  5008.00    0.4821972
  5009.00    0.4852661
  5010.00    0.4883447
  5011.00    0.4914327
  5012.00    0.4945302
  5013.00    0.4976371
  5014.00    0.5007534
  5015.00    0.5038789
  5016.00    0.5070137
  5017.00    0.5101577
  5018.00    0.5133108
  5019.00    0.5164731
  5020.00    0.5196445
  5021.00    0.5228249
  5022.00    0.5260144
  5023.00    0.5292129
  5024.00    0.5324204
  5025.00    0.5356369
  5026.00    0.5388623
  5027.00    0.5420967
  5028.00    0.5453401
  5029.00    0.5485925
  5030.00    0.5518538
  5031.00    0.5551240
  5032.00    0.5584033
  5033.00    0.5616916
  5034.00    0.5649888
  5035.00    0.5682952
  5036.00    0.5716105
  5037.00    0.5749350
  5038.00    0.5782686
  5039.00    0.5816113
  5040.00    0.5849633
  5041.00    0.5883245
  5042.00    0.5916950
  5043.00    0.5950748
  5044.00    0.5984640
  5045.00    0.6018626
  5046.00    0.6052708
  5047.00    0.6086886
  5048.00    0.6121160
  5049.00    0.6155531
  5050.00    0.6190000
  5051.00    0.6224566
  5052.00    0.6259220
  5053.00    0.6293949
  5054.00    0.6328743
  5055.00    0.6363591
  5056.00    0.6398480
  5057.00    0.6433401
  5058.00    0.6468341
  5059.00    0.6503289
  5060.00    0.6538235
  5061.00    0.6573166
  5062.00    0.6608072
  5063.00    0.6642941
  5064.00    0.6677763
  5065.00    0.6712525
  5066.00    0.6747216
  5067.00    0.6781826
  5068.00    0.6816342
  5069.00    0.6850753
  5070.00    0.6885049
  5071.00    0.6919216
  5072.00    0.6953245
  5073.00    0.6987122
  5074.00    0.7020837
  5075.00    0.7054377
  5076.00    0.7087732
  5077.00    0.7120888
  5078.00    0.7153835
  5079.00    0.7186559
  5080.00    0.7219050
  5081.00    0.7251294
  5082.00    0.7283279
  5083.00    0.7314993
  5084.00    0.7346424
  5085.00    0.7377558
  5086.00    0.7408383
  5087.00    0.7438886
  5088.00    0.7469054
  5089.00    0.7498874
  5090.00    0.7528333
  5091.00    0.7557416
  5092.00    0.7586111
  5093.00    0.7614404
  5094.00    0.7642281
  5095.00    0.7669727
  5096.00    0.7696729
  5097.00    0.7723272
  5098.00    0.7749341
  5099.00    0.7774922
  5100.00    0.7800000
  5101.00    0.7824564
  5102.00    0.7848629
  5103.00    0.7872211
  5104.00    0.7895327
  5105.00    0.7917997
  5106.00    0.7940236
  5107.00    0.7962062
  5108.00    0.7983493
  5109.00    0.8004544
  5110.00    0.8025232
  5111.00    0.8045575
  5112.00    0.8065588
  5113.00    0.8085288
  5114.00    0.8104690
  5115.00    0.8123811
  5116.00    0.8142667
  5117.00    0.8161273
  5118.00    0.8179645
  5119.00    0.8197799
  5120.00    0.8215750
  5121.00    0.8233514
  5122.00    0.8251106
  5123.00    0.8268541
  5124.00    0.8285834
  5125.00    0.8303001
  5126.00    0.8320057
  5127.00    0.8337016
  5128.00    0.8353895
  5129.00    0.8370707
  5130.00    0.8387468
  5131.00    0.8404193
  5132.00    0.8420896
  5133.00    0.8437593
  5134.00    0.8454298
  5135.00    0.8471027
  5136.00    0.8487794
  5137.00    0.8504615
  5138.00    0.8521504
  5139.00    0.8538476
  5140.00    0.8555546
  5141.00    0.8572730
  5142.00    0.8590042
  5143.00    0.8607498
  5144.00    0.8625113
  5145.00    0.8642902
  5146.00    0.8660881
  5147.00    0.8679064
  5148.00    0.8697468
  5149.00    0.8716108
  5150.00    0.8735000
  5151.00    0.8754154
  5152.00    0.8773558
  5153.00    0.8793195
  5154.00    0.8813049
  5155.00    0.8833101
  5156.00    0.8853336
  5157.00    0.8873735
  5158.00    0.8894284
  5159.00    0.8914964
  5160.00    0.8935759
  5161.00    0.8956653
  5162.00    0.8977629
  5163.00    0.8998670
  5164.00    0.9019760
  5165.00    0.9040883
  5166.00    0.9062021
  5167.00    0.9083159
  5168.00    0.9104280
  5169.00    0.9125367
  5170.00    0.9146405
  5171.00    0.9167375
  5172.00    0.9188263
  5173.00    0.9209051
  5174.00    0.9229722
  5175.00    0.9250261
  5176.00    0.9270650
  5177.00    0.9290872
  5178.00    0.9310911
  5179.00    0.9330750
  5180.00    0.9350372
  5181.00    0.9369759
  5182.00    0.9388895
  5183.00    0.9407762
  5184.00    0.9426342
  5185.00    0.9444619
  5186.00    0.9462575
  5187.00    0.9480192
  5188.00    0.9497452
  5189.00    0.9514337
  5190.00    0.9530828
  5191.00    0.9546909
  5192.00    0.9562559
  5193.00    0.9577760
  5194.00    0.9592494
  5195.00    0.9606742
  5196.00    0.9620484
  5197.00    0.9633700
  5198.00    0.9646371
  5199.00    0.9658478
  5200.00    0.9670000
  5201.00    0.9680923
  5202.00    0.9691261
  5203.00    0.9701032
  5204.00    0.9710254
  5205.00    0.9718948
  5206.00    0.9727130
  5207.00    0.9734820
  5208.00    0.9742035
  5209.00    0.9748794
  5210.00    0.9755113
  5211.00    0.9761010
  5212.00    0.9766503
  5213.00    0.9771609
  5214.00    0.9776344
  5215.00    0.9780726
  5216.00    0.9784771
  5217.00    0.9788496
  5218.00    0.9791917
  5219.00    0.9795051
  5220.00    0.9797913
  5221.00    0.9800520
  5222.00    0.9802888
  5223.00    0.9805033
  5224.00    0.9806970
  5225.00    0.9808715
  5226.00    0.9810284
  5227.00    0.9811692
  5228.00    0.9812955
  5229.00    0.9814089
  5230.00    0.9815108
  5231.00    0.9816028
  5232.00    0.9816865
  5233.00    0.9817633
  5234.00    0.9818348
  5235.00    0.9819026
  5236.00    0.9819681
  5237.00    0.9820328
  5238.00    0.9820983
  5239.00    0.9821661
  5240.00    0.9822377
  5241.00    0.9823146
  5242.00    0.9823984
  5243.00    0.9824906
  5244.00    0.9825927
  5245.00    0.9827063
  5246.00    0.9828328
  5247.00    0.9829739
  5248.00    0.9831311
  5249.00    0.9833060
  5250.00    0.9835000
  5251.00    0.9837144
  5252.00    0.9839486
  5253.00    0.9842016
  5254.00    0.9844724
  5255.00    0.9847600
  5256.00    0.9850635
  5257.00    0.9853819
  5258.00    0.9857143
  5259.00    0.9860597
  5260.00    0.9864171
  5261.00    0.9867857
  5262.00    0.9871644
  5263.00    0.9875524
  5264.00    0.9879488
  5265.00    0.9883525
  5266.00    0.9887627
  5267.00    0.9891785
  5268.00    0.9895989
  5269.00    0.9900231
  5270.00    0.9904500
  5271.00    0.9908789
  5272.00    0.9913088
  5273.00    0.9917387
  5274.00    0.9921679
  5275.00    0.9925953
  5276.00    0.9930200
  5277.00    0.9934412
  5278.00    0.9938579
  5279.00    0.9942692
  5280.00    0.9946742
  5281.00    0.9950720
  5282.00    0.9954616
  5283.00    0.9958421
  5284.00    0.9962127
  5285.00    0.9965722
  5286.00    0.9969199
  5287.00    0.9972548
  5288.00    0.9975759
  5289.00    0.9978822
  5290.00    0.9981729
  5291.00    0.9984468
  5292.00    0.9987032
  5293.00    0.9989410
  5294.00    0.9991591
  5295.00    0.9993566
  5296.00    0.9995326
  5297.00    0.9996859
  5298.00    0.9998156
  5299.00    0.9999207
  5300.00    1.0000000
  5301.00    1.0000529
  5302.00    1.0000799
  5303.00    1.0000820
  5304.00    1.0000599
  5305.00    1.0000145
  5306.00    0.9999467
  5307.00    0.9998573
  5308.00    0.9997472
  5309.00    0.9996171
  5310.00    0.9994679
  5311.00    0.9993003
  5312.00    0.9991153
  5313.00    0.9989135
  5314.00    0.9986958
  5315.00    0.9984629
  5316.00    0.9982156
  5317.00    0.9979546
  5318.00    0.9976808
  5319.00    0.9973949
  5320.00    0.9970976
  5321.00    0.9967897
  5322.00    0.9964719
  5323.00    0.9961450
  5324.00    0.9958097
  5325.00    0.9954667
  5326.00    0.9951167
  5327.00    0.9947605
  5328.00    0.9943989
  5329.00    0.9940324
  5330.00    0.9936619
  5331.00    0.9932880
  5332.00    0.9929115
  5333.00    0.9925331
  5334.00    0.9921535
  5335.00    0.9917734
  5336.00    0.9913935
  5337.00    0.9910146
  5338.00    0.9906373
  5339.00    0.9902624
  5340.00    0.9898906
  5341.00    0.9895225
  5342.00    0.9891590
  5343.00    0.9888007
  5344.00    0.9884483
  5345.00    0.9881027
  5346.00    0.9877644
  5347.00    0.9874343
  5348.00    0.9871130
  5349.00    0.9868013
  5350.00    0.9865000
  5351.00    0.9862096
  5352.00    0.9859296
  5353.00    0.9856594
  5354.00    0.9853985
  5355.00    0.9851462
  5356.00    0.9849018
  5357.00    0.9846649
  5358.00    0.9844348
  5359.00    0.9842108
  5360.00    0.9839924
  5361.00    0.9837790
  5362.00    0.9835700
  5363.00    0.9833648
  5364.00    0.9831628
  5365.00    0.9829634
  5366.00    0.9827660
  5367.00    0.9825701
  5368.00    0.9823750
  5369.00    0.9821802
  5370.00    0.9819850
  5371.00    0.9817889
  5372.00    0.9815914
  5373.00    0.9813917
  5374.00    0.9811893
  5375.00    0.9809837
  5376.00    0.9807742
  5377.00    0.9805602
  5378.00    0.9803412
  5379.00    0.9801166
  5380.00    0.9798857
  5381.00    0.9796479
  5382.00    0.9794026
  5383.00    0.9791493
  5384.00    0.9788874
  5385.00    0.9786161
  5386.00    0.9783349
  5387.00    0.9780432
  5388.00    0.9777403
  5389.00    0.9774256
  5390.00    0.9770985
  5391.00    0.9767583
  5392.00    0.9764044
  5393.00    0.9760361
  5394.00    0.9756528
  5395.00    0.9752539
  5396.00    0.9748385
  5397.00    0.9744062
  5398.00    0.9739561
  5399.00    0.9734876
  5400.00    0.9730000
  5401.00    0.9724928
  5402.00    0.9719665
  5403.00    0.9714216
  5404.00    0.9708589
  5405.00    0.9702789
  5406.00    0.9696822
  5407.00    0.9690695
  5408.00    0.9684414
  5409.00    0.9677984
  5410.00    0.9671412
  5411.00    0.9664704
  5412.00    0.9657865
  5413.00    0.9650901
  5414.00    0.9643818
  5415.00    0.9636621
  5416.00    0.9629316
  5417.00    0.9621909
  5418.00    0.9614406
  5419.00    0.9606810
  5420.00    0.9599130
  5421.00    0.9591368
  5422.00    0.9583532
  5423.00    0.9575626
  5424.00    0.9567656
  5425.00    0.9559627
  5426.00    0.9551544
  5427.00    0.9543413
  5428.00    0.9535239
  5429.00    0.9527026
  5430.00    0.9518781
  5431.00    0.9510509
  5432.00    0.9502214
  5433.00    0.9493902
  5434.00    0.9485578
  5435.00    0.9477247
  5436.00    0.9468915
  5437.00    0.9460586
  5438.00    0.9452266
  5439.00    0.9443960
  5440.00    0.9435673
  5441.00    0.9427410
  5442.00    0.9419177
  5443.00    0.9410979
  5444.00    0.9402820
  5445.00    0.9394706
  5446.00    0.9386643
  5447.00    0.9378636
  5448.00    0.9370689
  5449.00    0.9362809
  5450.00    0.9355000
  5451.00    0.9347267
  5452.00    0.9339607
  5453.00    0.9332015
  5454.00    0.9324489
  5455.00    0.9317022
  5456.00    0.9309613
  5457.00    0.9302256
  5458.00    0.9294947
  5459.00    0.9287683
  5460.00    0.9280460
  5461.00    0.9273274
  5462.00    0.9266120
  5463.00    0.9258996
  5464.00    0.9251896
  5465.00    0.9244817
  5466.00    0.9237756
  5467.00    0.9230708
  5468.00    0.9223669
  5469.00    0.9216636
  5470.00    0.9209605
  5471.00    0.9202572
  5472.00    0.9195533
  5473.00    0.9188484
  5474.00    0.9181421
  5475.00    0.9174341
  5476.00    0.9167239
  5477.00    0.9160112
  5478.00    0.9152956
  5479.00    0.9145767
  5480.00    0.9138540
  5481.00    0.9131273
  5482.00    0.9123960
  5483.00    0.9116599
  5484.00    0.9109185
  5485.00    0.9101713
  5486.00    0.9094181
  5487.00    0.9086584
  5488.00    0.9078918
  5489.00    0.9071178
  5490.00    0.9063361
  5491.00    0.9055463
  5492.00    0.9047478
  5493.00    0.9039404
  5494.00    0.9031236
  5495.00    0.9022969
  5496.00    0.9014598
  5497.00    0.9006121
  5498.00    0.8997532
  5499.00    0.8988826
  5500.00    0.8980000
  5501.00    0.8971050
  5502.00    0.8961978
  5503.00    0.8952788
  5504.00    0.8943485
  5505.00    0.8934071
  5506.00    0.8924551
  5507.00    0.8914927
  5508.00    0.8905204
  5509.00    0.8895385
  5510.00    0.8885474
  5511.00    0.8875473
  5512.00    0.8865387
  5513.00    0.8855219
  5514.00    0.8844972
  5515.00    0.8834650
  5516.00    0.8824255
  5517.00    0.8813791
  5518.00    0.8803262
  5519.00    0.8792670
  5520.00    0.8782019
  5521.00    0.8771311
  5522.00    0.8760551
  5523.00    0.8749740
  5524.00    0.8738883
  5525.00    0.8727982
  5526.00    0.8717041
  5527.00    0.8706061
  5528.00    0.8695047
  5529.00    0.8684002
  5530.00    0.8672928
  5531.00    0.8661828
  5532.00    0.8650706
  5533.00    0.8639564
  5534.00    0.8628405
  5535.00    0.8617233
  5536.00    0.8606049
  5537.00    0.8594858
  5538.00    0.8583662
  5539.00    0.8572464
  5540.00    0.8561267
  5541.00    0.8550074
  5542.00    0.8538888
  5543.00    0.8527712
  5544.00    0.8516548
  5545.00    0.8505400
  5546.00    0.8494271
  5547.00    0.8483163
  5548.00    0.8472080
  5549.00    0.8461025
  5550.00    0.8450000
  5551.00    0.8439008
  5552.00    0.8428049
  5553.00    0.8417121
  5554.00    0.8406223
  5555.00    0.8395355
  5556.00    0.8384514
  5557.00    0.8373700
  5558.00    0.8362912
  5559.00    0.8352149
  5560.00    0.8341410
  5561.00    0.8330693
  5562.00    0.8319998
  5563.00    0.8309324
  5564.00    0.8298669
  5565.00    0.8288033
  5566.00    0.8277414
  5567.00    0.8266813
  5568.00    0.8256226
  5569.00    0.8245655
  5570.00    0.8235097
  5571.00    0.8224551
  5572.00    0.8214018
  5573.00    0.8203495
  5574.00    0.8192982
  5575.00    0.8182478
  5576.00    0.8171982
  5577.00    0.8161492
  5578.00    0.8151009
  5579.00    0.8140531
  5580.00    0.8130057
  5581.00    0.8119586
  5582.00    0.8109118
  5583.00    0.8098650
  5584.00    0.8088183
  5585.00    0.8077716
  5586.00    0.8067247
  5587.00    0.8056776
  5588.00    0.8046301
  5589.00    0.8035822
  5590.00    0.8025338
  5591.00    0.8014848
  5592.00    0.8004350
  5593.00    0.7993845
  5594.00    0.7983330
  5595.00    0.7972806
  5596.00    0.7962270
  5597.00    0.7951723
  5598.00    0.7941163
  5599.00    0.7930589
  5600.00    0.7920000
  5601.00    0.7909396
  5602.00    0.7898776
  5603.00    0.7888142
  5604.00    0.7877493
  5605.00    0.7866831
  5606.00    0.7856155
  5607.00    0.7845466
  5608.00    0.7834765
  5609.00    0.7824053
  5610.00    0.7813329
  5611.00    0.7802594
  5612.00    0.7791848
  5613.00    0.7781093
  5614.00    0.7770328
  5615.00    0.7759553
  5616.00    0.7748771
  5617.00    0.7737979
  5618.00    0.7727180
  5619.00    0.7716374
  5620.00    0.7705561
  5621.00    0.7694741
  5622.00    0.7683916
  5623.00    0.7673084
  5624.00    0.7662247
  5625.00    0.7651406
  5626.00    0.7640560
  5627.00    0.7629710
  5628.00    0.7618856
  5629.00    0.7608000
  5630.00    0.7597140
  5631.00    0.7586279
  5632.00    0.7575415
  5633.00    0.7564550
  5634.00    0.7553683
  5635.00    0.7542816
  5636.00    0.7531949
  5637.00    0.7521081
  5638.00    0.7510215
  5639.00    0.7499349
  5640.00    0.7488484
  5641.00    0.7477621
  5642.00    0.7466760
  5643.00    0.7455902
  5644.00    0.7445047
  5645.00    0.7434195
  5646.00    0.7423347
  5647.00    0.7412503
  5648.00    0.7401663
  5649.00    0.7390829
  5650.00    0.7380000
  5651.00    0.7369176
  5652.00    0.7358359
  5653.00    0.7347546
  5654.00    0.7336739
  5655.00    0.7325936
  5656.00    0.7315137
  5657.00    0.7304343
  5658.00    0.7293552
  5659.00    0.7282765
  5660.00    0.7271981
  5661.00    0.7261200
  5662.00    0.7250422
  5663.00    0.7239646
  5664.00    0.7228871
  5665.00    0.7218099
  5666.00    0.7207329
  5667.00    0.7196559
  5668.00    0.7185790
  5669.00    0.7175023
  5670.00    0.7164255
  5671.00    0.7153488
  5672.00    0.7142720
  5673.00    0.7131952
  5674.00    0.7121183
  5675.00    0.7110413
  5676.00    0.7099642
  5677.00    0.7088870
  5678.00    0.7078095
  5679.00    0.7067318
  5680.00    0.7056539
  5681.00    0.7045757
  5682.00    0.7034973
  5683.00    0.7024185
  5684.00    0.7013393
  5685.00    0.7002597
  5686.00    0.6991798
  5687.00    0.6980994
  5688.00    0.6970185
  5689.00    0.6959371
  5690.00    0.6948552
  5691.00    0.6937727
  5692.00    0.6926896
  5693.00    0.6916059
  5694.00    0.6905216
  5695.00    0.6894366
  5696.00    0.6883508
  5697.00    0.6872643
  5698.00    0.6861770
  5699.00    0.6850889
  5700.00    0.6840000
  5701.00    0.6829102
  5702.00    0.6818196
  5703.00    0.6807281
  5704.00    0.6796359
  5705.00    0.6785428
  5706.00    0.6774491
  5707.00    0.6763547
  5708.00    0.6752595
  5709.00    0.6741638
  5710.00    0.6730674
  5711.00    0.6719704
  5712.00    0.6708729
  5713.00    0.6697748
  5714.00    0.6686762
  5715.00    0.6675771
  5716.00    0.6664776
  5717.00    0.6653776
  5718.00    0.6642772
  5719.00    0.6631765
  5720.00    0.6620754
  5721.00    0.6609739
  5722.00    0.6598722
  5723.00    0.6587702
  5724.00    0.6576679
  5725.00    0.6565654
  5726.00    0.6554627
  5727.00    0.6543598
  5728.00    0.6532567
  5729.00    0.6521536
  5730.00    0.6510503
  5731.00    0.6499469
  5732.00    0.6488435
  5733.00    0.6477400
  5734.00    0.6466366
  5735.00    0.6455331
  5736.00    0.6444297
  5737.00    0.6433263
  5738.00    0.6422231
  5739.00    0.6411200
  5740.00    0.6400169
  5741.00    0.6389141
  5742.00    0.6378115
  5743.00    0.6367090
  5744.00    0.6356068
  5745.00    0.6345049
  5746.00    0.6334032
  5747.00    0.6323019
  5748.00    0.6312009
  5749.00    0.6301003
  5750.00    0.6290000
  5751.00    0.6279002
  5752.00    0.6268007
  5753.00    0.6257016
  5754.00    0.6246029
  5755.00    0.6235044
  5756.00    0.6224063
  5757.00    0.6213084
  5758.00    0.6202108
  5759.00    0.6191133
  5760.00    0.6180161
  5761.00    0.6169190
  5762.00    0.6158221
  5763.00    0.6147253
  5764.00    0.6136285
  5765.00    0.6125319
  5766.00    0.6114353
  5767.00    0.6103387
  5768.00    0.6092421
  5769.00    0.6081455
  5770.00    0.6070488
  5771.00    0.6059520
  5772.00    0.6048552
  5773.00    0.6037582
  5774.00    0.6026610
  5775.00    0.6015637
  5776.00    0.6004662
  5777.00    0.5993685
  5778.00    0.5982705
  5779.00    0.5971722
  5780.00    0.5960737
  5781.00    0.5949748
  5782.00    0.5938755
  5783.00    0.5927759
  5784.00    0.5916759
  5785.00    0.5905755
  5786.00    0.5894746
  5787.00    0.5883733
  5788.00    0.5872714
  5789.00    0.5861690
  5790.00    0.5850661
  5791.00    0.5839625
  5792.00    0.5828584
  5793.00    0.5817536
  5794.00    0.5806482
  5795.00    0.5795420
  5796.00    0.5784352
  5797.00    0.5773276
  5798.00    0.5762192
  5799.00    0.5751100
  5800.00    0.5740000
  5801.00    0.5728891
  5802.00    0.5717774
  5803.00    0.5706648
  5804.00    0.5695514
  5805.00    0.5684371
  5806.00    0.5673220
  5807.00    0.5662061
  5808.00    0.5650894
  5809.00    0.5639719
  5810.00    0.5628536
  5811.00    0.5617345
  5812.00    0.5606146
  5813.00    0.5594940
  5814.00    0.5583725
  5815.00    0.5572503
  5816.00    0.5561273
  5817.00    0.5550036
  5818.00    0.5538790
  5819.00    0.5527538
  5820.00    0.5516278
  5821.00    0.5505010
  5822.00    0.5493735
  5823.00    0.5482452
  5824.00    0.5471162
  5825.00    0.5459865
  5826.00    0.5448560
  5827.00    0.5437247
  5828.00    0.5425928
  5829.00    0.5414601
  5830.00    0.5403266
  5831.00    0.5391924
  5832.00    0.5380575
  5833.00    0.5369218
  5834.00    0.5357854
  5835.00    0.5346483
  5836.00    0.5335104
  5837.00    0.5323717
  5838.00    0.5312323
  5839.00    0.5300922
  5840.00    0.5289513
  5841.00    0.5278096
  5842.00    0.5266672
  5843.00    0.5255241
  5844.00    0.5243801
  5845.00    0.5232354
  5846.00    0.5220899
  5847.00    0.5209436
  5848.00    0.5197965
  5849.00    0.5186487
  5850.00    0.5175000
  5851.00    0.5163505
  5852.00    0.5152004
  5853.00    0.5140496
  5854.00    0.5128983
  5855.00    0.5117465
  5856.00    0.5105944
  5857.00    0.5094421
  5858.00    0.5082896
  5859.00    0.5071370
  5860.00    0.5059845
  5861.00    0.5048320
  5862.00    0.5036798
  5863.00    0.5025279
  5864.00    0.5013764
  5865.00    0.5002254
  5866.00    0.4990750
  5867.00    0.4979252
  5868.00    0.4967762
  5869.00    0.4956281
  5870.00    0.4944809
  5871.00    0.4933347
  5872.00    0.4921898
  5873.00    0.4910460
  5874.00    0.4899036
  5875.00    0.4887626
  5876.00    0.4876232
  5877.00    0.4864853
  5878.00    0.4853492
  5879.00    0.4842149
  5880.00    0.4830826
  5881.00    0.4819522
  5882.00    0.4808240
  5883.00    0.4796980
  5884.00    0.4785743
  5885.00    0.4774531
  5886.00    0.4763344
  5887.00    0.4752183
  5888.00    0.4741050
  5889.00    0.4729945
  5890.00    0.4718870
  5891.00    0.4707826
  5892.00    0.4696814
  5893.00    0.4685834
  5894.00    0.4674889
  5895.00    0.4663979
  5896.00    0.4653106
  5897.00    0.4642270
  5898.00    0.4631473
  5899.00    0.4620716
  5900.00    0.4610000
  5901.00    0.4599326
  5902.00    0.4588694
  5903.00    0.4578100
  5904.00    0.4567545
  5905.00    0.4557027
  5906.00    0.4546544
  5907.00    0.4536094
  5908.00    0.4525677
  5909.00    0.4515291
  5910.00    0.4504934
  5911.00    0.4494606
  5912.00    0.4484304
  5913.00    0.4474028
  5914.00    0.4463776
  5915.00    0.4453547
  5916.00    0.4443339
  5917.00    0.4433152
  5918.00    0.4422984
  5919.00    0.4412833
  5920.00    0.4402698
  5921.00    0.4392579
  5922.00    0.4382473
  5923.00    0.4372379
  5924.00    0.4362297
  5925.00    0.4352225
  5926.00    0.4342162
  5927.00    0.4332106
  5928.00    0.4322056
  5929.00    0.4312011
  5930.00    0.4301970
  5931.00    0.4291931
  5932.00    0.4281894
  5933.00    0.4271856
  5934.00    0.4261817
  5935.00    0.4251776
  5936.00    0.4241731
  5937.00    0.4231681
  5938.00    0.4221624
  5939.00    0.4211560
  5940.00    0.4201488
  5941.00    0.4191405
  5942.00    0.4181311
  5943.00    0.4171205
  5944.00    0.4161084
  5945.00    0.4150949
  5946.00    0.4140797
  5947.00    0.4130627
  5948.00    0.4120439
  5949.00    0.4110230
  5950.00    0.4100000
  5951.00    0.4089747
  5952.00    0.4079473
  5953.00    0.4069179
  5954.00    0.4058867
  5955.00    0.4048537
  5956.00    0.4038193
  5957.00    0.4027834
  5958.00    0.4017463
  5959.00    0.4007081
  5960.00    0.3996689
  5961.00    0.3986289
  5962.00    0.3975882
  5963.00    0.3965471
  5964.00    0.3955055
  5965.00    0.3944637
  5966.00    0.3934218
  5967.00    0.3923800
  5968.00    0.3913384
  5969.00    0.3902971
  5970.00    0.3892564
  5971.00    0.3882162
  5972.00    0.3871768
  5973.00    0.3861384
  5974.00    0.3851010
  5975.00    0.3840649
  5976.00    0.3830301
  5977.00    0.3819968
  5978.00    0.3809652
  5979.00    0.3799354
  5980.00    0.3789075
  5981.00    0.3778818
  5982.00    0.3768583
  5983.00    0.3758372
  5984.00    0.3748187
  5985.00    0.3738029
  5986.00    0.3727899
  5987.00    0.3717800
  5988.00    0.3707733
  5989.00    0.3697699
  5990.00    0.3687700
  5991.00    0.3677738
  5992.00    0.3667814
  5993.00    0.3657930
  5994.00    0.3648088
  5995.00    0.3638288
  5996.00    0.3628534
  5997.00    0.3618826
  5998.00    0.3609167
  5999.00    0.3599557
  6000.00    0.3590000
  6001.00    0.3580496
  6002.00    0.3571043
  6003.00    0.3561640
  6004.00    0.3552286
  6005.00    0.3542977
  6006.00    0.3533714
  6007.00    0.3524492
  6008.00    0.3515312
  6009.00    0.3506171
  6010.00    0.3497068
  6011.00    0.3488000
  6012.00    0.3478966
  6013.00    0.3469965
  6014.00    0.3460994
  6015.00    0.3452052
  6016.00    0.3443138
  6017.00    0.3434249
  6018.00    0.3425385
  6019.00    0.3416543
  6020.00    0.3407722
  6021.00    0.3398920
  6022.00    0.3390136
  6023.00    0.3381368
  6024.00    0.3372614
  6025.00    0.3363874
  6026.00    0.3355144
  6027.00    0.3346425
  6028.00    0.3337714
  6029.00    0.3329009
  6030.00    0.3320310
  6031.00    0.3311614
  6032.00    0.3302920
  6033.00    0.3294227
  6034.00    0.3285532
  6035.00    0.3276835
  6036.00    0.3268134
  6037.00    0.3259427
  6038.00    0.3250713
  6039.00    0.3241990
  6040.00    0.3233256
  6041.00    0.3224511
  6042.00    0.3215752
  6043.00    0.3206977
  6044.00    0.3198186
  6045.00    0.3189377
  6046.00    0.3180548
  6047.00    0.3171697
  6048.00    0.3162824
  6049.00    0.3153925
  6050.00    0.3145000
  6051.00    0.3136048
  6052.00    0.3127069
  6053.00    0.3118066
  6054.00    0.3109041
  6055.00    0.3099994
  6056.00    0.3090929
  6057.00    0.3081846
  6058.00    0.3072748
  6059.00    0.3063636
  6060.00    0.3054513
  6061.00    0.3045379
  6062.00    0.3036236
  6063.00    0.3027087
  6064.00    0.3017933
  6065.00    0.3008775
  6066.00    0.2999617
  6067.00    0.2990458
  6068.00    0.2981301
  6069.00    0.2972148
  6070.00    0.2963001
  6071.00    0.2953861
  6072.00    0.2944729
  6073.00    0.2935609
  6074.00    0.2926500
  6075.00    0.2917406
  6076.00    0.2908328
  6077.00    0.2899268
  6078.00    0.2890227
  6079.00    0.2881208
  6080.00    0.2872211
  6081.00    0.2863240
  6082.00    0.2854295
  6083.00    0.2845379
  6084.00    0.2836493
  6085.00    0.2827639
  6086.00    0.2818819
  6087.00    0.2810036
  6088.00    0.2801290
  6089.00    0.2792584
  6090.00    0.2783919
  6091.00    0.2775298
  6092.00    0.2766723
  6093.00    0.2758195
  6094.00    0.2749717
  6095.00    0.2741290
  6096.00    0.2732917
  6097.00    0.2724599
  6098.00    0.2716339
  6099.00    0.2708139
  6100.00    0.2700000
  6101.00    0.2691925
  6102.00    0.2683912
  6103.00    0.2675959
  6104.00    0.2668063
  6105.00    0.2660223
  6106.00    0.2652437
  6107.00    0.2644702
  6108.00    0.2637018
  6109.00    0.2629381
  6110.00    0.2621789
  6111.00    0.2614242
  6112.00    0.2606737
  6113.00    0.2599272
  6114.00    0.2591845
  6115.00    0.2584454
  6116.00    0.2577098
  6117.00    0.2569775
  6118.00    0.2562482
  6119.00    0.2555219
  6120.00    0.2547983
  6121.00    0.2540772
  6122.00    0.2533586
  6123.00    0.2526421
  6124.00    0.2519276
  6125.00    0.2512150
  6126.00    0.2505041
  6127.00    0.2497947
  6128.00    0.2490866
  6129.00    0.2483797
  6130.00    0.2476737
  6131.00    0.2469686
  6132.00    0.2462641
  6133.00    0.2455601
  6134.00    0.2448564
  6135.00    0.2441529
  6136.00    0.2434493
  6137.00    0.2427455
  6138.00    0.2420413
  6139.00    0.2413366
  6140.00    0.2406312
  6141.00    0.2399249
  6142.00    0.2392175
  6143.00    0.2385090
  6144.00    0.2377990
  6145.00    0.2370874
  6146.00    0.2363741
  6147.00    0.2356589
  6148.00    0.2349416
  6149.00    0.2342220
  6150.00    0.2335000
  6151.00    0.2327754
  6152.00    0.2320484
  6153.00    0.2313190
  6154.00    0.2305874
  6155.00    0.2298538
  6156.00    0.2291183
  6157.00    0.2283810
  6158.00    0.2276421
  6159.00    0.2269018
  6160.00    0.2261601
  6161.00    0.2254172
  6162.00    0.2246733
  6163.00    0.2239284
  6164.00    0.2231828
  6165.00    0.2224366
  6166.00    0.2216898
  6167.00    0.2209427
  6168.00    0.2201954
  6169.00    0.2194479
  6170.00    0.2187006
  6171.00    0.2179534
  6172.00    0.2172065
  6173.00    0.2164601
  6174.00    0.2157143
  6175.00    0.2149693
  6176.00    0.2142251
  6177.00    0.2134820
  6178.00    0.2127400
  6179.00    0.2119993
  6180.00    0.2112601
  6181.00    0.2105224
  6182.00    0.2097864
  6183.00    0.2090523
  6184.00    0.2083203
  6185.00    0.2075903
  6186.00    0.2068627
  6187.00    0.2061375
  6188.00    0.2054149
  6189.00    0.2046950
  6190.00    0.2039780
  6191.00    0.2032640
  6192.00    0.2025532
  6193.00    0.2018457
  6194.00    0.2011418
  6195.00    0.2004415
  6196.00    0.1997449
  6197.00    0.1990524
  6198.00    0.1983639
  6199.00    0.1976797
  6200.00    0.1970000
  6201.00    0.1963248
  6202.00    0.1956541
  6203.00    0.1949877
  6204.00    0.1943254
  6205.00    0.1936671
  6206.00    0.1930127
  6207.00    0.1923620
  6208.00    0.1917148
  6209.00    0.1910711
  6210.00    0.1904307
  6211.00    0.1897934
  6212.00    0.1891591
  6213.00    0.1885277
  6214.00    0.1878990
  6215.00    0.1872729
  6216.00    0.1866493
  6217.00    0.1860280
  6218.00    0.1854089
  6219.00    0.1847919
  6220.00    0.1841768
  6221.00    0.1835636
  6222.00    0.1829520
  6223.00    0.1823419
  6224.00    0.1817333
  6225.00    0.1811260
  6226.00    0.1805199
  6227.00    0.1799148
  6228.00    0.1793106
  6229.00    0.1787072
  6230.00    0.1781045
  6231.00    0.1775023
  6232.00    0.1769006
  6233.00    0.1762992
  6234.00    0.1756979
  6235.00    0.1750967
  6236.00    0.1744954
  6237.00    0.1738939
  6238.00    0.1732921
  6239.00    0.1726899
  6240.00    0.1720870
  6241.00    0.1714835
  6242.00    0.1708792
  6243.00    0.1702739
  6244.00    0.1696676
  6245.00    0.1690600
  6246.00    0.1684512
  6247.00    0.1678409
  6248.00    0.1672290
  6249.00    0.1666154
  6250.00    0.1660000
  6251.00    0.1653827
  6252.00    0.1647635
  6253.00    0.1641425
  6254.00    0.1635200
  6255.00    0.1628959
  6256.00    0.1622705
  6257.00    0.1616437
  6258.00    0.1610157
  6259.00    0.1603867
  6260.00    0.1597567
  6261.00    0.1591259
  6262.00    0.1584943
  6263.00    0.1578620
  6264.00    0.1572292
  6265.00    0.1565960
  6266.00    0.1559625
  6267.00    0.1553287
  6268.00    0.1546948
  6269.00    0.1540610
  6270.00    0.1534272
  6271.00    0.1527936
  6272.00    0.1521603
  6273.00    0.1515275
  6274.00    0.1508952
  6275.00    0.1502635
  6276.00    0.1496326
  6277.00    0.1490025
  6278.00    0.1483734
  6279.00    0.1477453
  6280.00    0.1471184
  6281.00    0.1464928
  6282.00    0.1458686
  6283.00    0.1452459
  6284.00    0.1446247
  6285.00    0.1440054
  6286.00    0.1433878
  6287.00    0.1427722
  6288.00    0.1421587
  6289.00    0.1415474
  6290.00    0.1409383
  6291.00    0.1403317
  6292.00    0.1397276
  6293.00    0.1391261
  6294.00    0.1385274
  6295.00    0.1379315
  6296.00    0.1373387
  6297.00    0.1367490
  6298.00    0.1361626
  6299.00    0.1355796
  6300.00    0.1350000
  6301.00    0.1344240
  6302.00    0.1338516
  6303.00    0.1332825
  6304.00    0.1327166
  6305.00    0.1321538
  6306.00    0.1315940
  6307.00    0.1310369
  6308.00    0.1304826
  6309.00    0.1299308
  6310.00    0.1293815
  6311.00    0.1288345
  6312.00    0.1282897
  6313.00    0.1277469
  6314.00    0.1272060
  6315.00    0.1266670
  6316.00    0.1261296
  6317.00    0.1255938
  6318.00    0.1250594
  6319.00    0.1245263
  6320.00    0.1239944
  6321.00    0.1234636
  6322.00    0.1229338
  6323.00    0.1224048
  6324.00    0.1218765
  6325.00    0.1213488
  6326.00    0.1208215
  6327.00    0.1202946
  6328.00    0.1197680
  6329.00    0.1192415
  6330.00    0.1187149
  6331.00    0.1181883
  6332.00    0.1176614
  6333.00    0.1171342
  6334.00    0.1166064
  6335.00    0.1160781
  6336.00    0.1155491
  6337.00    0.1150192
  6338.00    0.1144884
  6339.00    0.1139565
  6340.00    0.1134235
  6341.00    0.1128891
  6342.00    0.1123532
  6343.00    0.1118158
  6344.00    0.1112768
  6345.00    0.1107359
  6346.00    0.1101931
  6347.00    0.1096482
  6348.00    0.1091012
  6349.00    0.1085518
  6350.00    0.1080000
  6351.00    0.1074457
  6352.00    0.1068890
  6353.00    0.1063301
  6354.00    0.1057693
  6355.00    0.1052066
  6356.00    0.1046423
  6357.00    0.1040765
  6358.00    0.1035095
  6359.00    0.1029414
  6360.00    0.1023723
  6361.00    0.1018026
  6362.00    0.1012324
  6363.00    0.1006618
  6364.00    0.1000910
  6365.00    0.0995202
  6366.00    0.0989496
  6367.00    0.0983794
  6368.00    0.0978098
  6369.00    0.0972409
  6370.00    0.0966729
  6371.00    0.0961060
  6372.00    0.0955404
  6373.00    0.0949763
  6374.00    0.0944139
  6375.00    0.0938533
  6376.00    0.0932947
  6377.00    0.0927383
  6378.00    0.0921843
  6379.00    0.0916329
  6380.00    0.0910843
  6381.00    0.0905387
  6382.00    0.0899962
  6383.00    0.0894571
  6384.00    0.0889215
  6385.00    0.0883897
  6386.00    0.0878618
  6387.00    0.0873381
  6388.00    0.0868187
  6389.00    0.0863038
  6390.00    0.0857937
  6391.00    0.0852885
  6392.00    0.0847885
  6393.00    0.0842939
  6394.00    0.0838048
  6395.00    0.0833216
  6396.00    0.0828444
  6397.00    0.0823734
  6398.00    0.0819088
  6399.00    0.0814510
  6400.00    0.0810000
  6401.00    0.0805561
  6402.00    0.0801191
  6403.00    0.0796887
  6404.00    0.0792648
  6405.00    0.0788471
  6406.00    0.0784353
  6407.00    0.0780292
  6408.00    0.0776287
  6409.00    0.0772334
  6410.00    0.0768432
  6411.00    0.0764578
  6412.00    0.0760770
  6413.00    0.0757006
  6414.00    0.0753284
  6415.00    0.0749602
  6416.00    0.0745958
  6417.00    0.0742349
  6418.00    0.0738773
  6419.00    0.0735229
  6420.00    0.0731714
  6421.00    0.0728227
  6422.00    0.0724765
  6423.00    0.0721325
  6424.00    0.0717908
  6425.00    0.0714509
  6426.00    0.0711128
  6427.00    0.0707761
  6428.00    0.0704408
  6429.00    0.0701067
  6430.00    0.0697734
  6431.00    0.0694409
  6432.00    0.0691089
  6433.00    0.0687773
  6434.00    0.0684458
  6435.00    0.0681143
  6436.00    0.0677824
  6437.00    0.0674502
  6438.00    0.0671173
  6439.00    0.0667836
  6440.00    0.0664488
  6441.00    0.0661128
  6442.00    0.0657753
  6443.00    0.0654362
  6444.00    0.0650953
  6445.00    0.0647523
  6446.00    0.0644072
  6447.00    0.0640595
  6448.00    0.0637093
  6449.00    0.0633562
  6450.00    0.0630000
  6451.00    0.0626407
  6452.00    0.0622783
  6453.00    0.0619130
  6454.00    0.0615451
  6455.00    0.0611746
  6456.00    0.0608019
  6457.00    0.0604271
  6458.00    0.0600504
  6459.00    0.0596720
  6460.00    0.0592921
  6461.00    0.0589108
  6462.00    0.0585283
  6463.00    0.0581449
  6464.00    0.0577608
  6465.00    0.0573760
  6466.00    0.0569908
  6467.00    0.0566054
  6468.00    0.0562199
  6469.00    0.0558346
  6470.00    0.0554497
  6471.00    0.0550652
  6472.00    0.0546815
  6473.00    0.0542986
  6474.00    0.0539169
  6475.00    0.0535363
  6476.00    0.0531573
  6477.00    0.0527799
  6478.00    0.0524043
  6479.00    0.0520307
  6480.00    0.0516594
  6481.00    0.0512904
  6482.00    0.0509241
  6483.00    0.0505605
  6484.00    0.0501999
  6485.00    0.0498425
  6486.00    0.0494885
  6487.00    0.0491380
  6488.00    0.0487913
  6489.00    0.0484486
  6490.00    0.0481100
  6491.00    0.0477759
  6492.00    0.0474463
  6493.00    0.0471215
  6494.00    0.0468017
  6495.00    0.0464871
  6496.00    0.0461780
  6497.00    0.0458745
  6498.00    0.0455768
  6499.00    0.0452853
  6500.00    0.0450000
  6501.00    0.0447212
  6502.00    0.0444487
  6503.00    0.0441823
  6504.00    0.0439219
  6505.00    0.0436671
  6506.00    0.0434177
  6507.00    0.0431737
  6508.00    0.0429347
  6509.00    0.0427005
  6510.00    0.0424711
  6511.00    0.0422461
  6512.00    0.0420254
  6513.00    0.0418088
  6514.00    0.0415960
  6515.00    0.0413870
  6516.00    0.0411815
  6517.00    0.0409793
  6518.00    0.0407802
  6519.00    0.0405841
  6520.00    0.0403908
  6521.00    0.0402001
  6522.00    0.0400118
  6523.00    0.0398257
  6524.00    0.0396416
  6525.00    0.0394595
  6526.00    0.0392790
  6527.00    0.0391000
  6528.00    0.0389224
  6529.00    0.0387460
  6530.00    0.0385705
  6531.00    0.0383959
  6532.00    0.0382218
  6533.00    0.0380483
  6534.00    0.0378751
  6535.00    0.0377019
  6536.00    0.0375287
  6537.00    0.0373553
  6538.00    0.0371815
  6539.00    0.0370071
  6540.00    0.0368319
  6541.00    0.0366558
  6542.00    0.0364786
  6543.00    0.0363001
  6544.00    0.0361202
  6545.00    0.0359386
  6546.00    0.0357552
  6547.00    0.0355699
  6548.00    0.0353823
  6549.00    0.0351924
  6550.00    0.0350000
  6551.00    0.0348049
  6552.00    0.0346073
  6553.00    0.0344073
  6554.00    0.0342050
  6555.00    0.0340006
  6556.00    0.0337942
  6557.00    0.0335861
  6558.00    0.0333762
  6559.00    0.0331649
  6560.00    0.0329522
  6561.00    0.0327383
  6562.00    0.0325233
  6563.00    0.0323074
  6564.00    0.0320908
  6565.00    0.0318734
  6566.00    0.0316556
  6567.00    0.0314375
  6568.00    0.0312191
  6569.00    0.0310007
  6570.00    0.0307823
  6571.00    0.0305642
  6572.00    0.0303465
  6573.00    0.0301292
  6574.00    0.0299127
  6575.00    0.0296969
  6576.00    0.0294821
  6577.00    0.0292684
  6578.00    0.0290559
  6579.00    0.0288448
  6580.00    0.0286353
  6581.00    0.0284274
  6582.00    0.0282213
  6583.00    0.0280173
  6584.00    0.0278153
  6585.00    0.0276157
  6586.00    0.0274185
  6587.00    0.0272238
  6588.00    0.0270319
  6589.00    0.0268429
  6590.00    0.0266569
  6591.00    0.0264742
  6592.00    0.0262948
  6593.00    0.0261189
  6594.00    0.0259467
  6595.00    0.0257783
  6596.00    0.0256140
  6597.00    0.0254538
  6598.00    0.0252980
  6599.00    0.0251466
  6600.00    0.0250000
  6601.00    0.0248582
  6602.00    0.0247210
  6603.00    0.0245884
  6604.00    0.0244602
  6605.00    0.0243363
  6606.00    0.0242165
  6607.00    0.0241006
  6608.00    0.0239885
  6609.00    0.0238801
  6610.00    0.0237753
  6611.00    0.0236739
  6612.00    0.0235757
  6613.00    0.0234806
  6614.00    0.0233886
  6615.00    0.0232993
  6616.00    0.0232129
  6617.00    0.0231290
  6618.00    0.0230476
  6619.00    0.0229685
  6620.00    0.0228916
  6621.00    0.0228168
  6622.00    0.0227439
  6623.00    0.0226729
  6624.00    0.0226036
  6625.00    0.0225359
  6626.00    0.0224696
  6627.00    0.0224046
  6628.00    0.0223409
  6629.00    0.0222782
  6630.00    0.0222165
  6631.00    0.0221557
  6632.00    0.0220955
  6633.00    0.0220360
  6634.00    0.0219770
  6635.00    0.0219183
  6636.00    0.0218599
  6637.00    0.0218016
  6638.00    0.0217433
  6639.00    0.0216848
  6640.00    0.0216262
  6641.00    0.0215672
  6642.00    0.0215077
  6643.00    0.0214476
  6644.00    0.0213867
  6645.00    0.0213251
  6646.00    0.0212625
  6647.00    0.0211988
  6648.00    0.0211339
  6649.00    0.0210677
  6650.00    0.0210000
  6651.00    0.0209308
  6652.00    0.0208601
  6653.00    0.0207879
  6654.00    0.0207144
  6655.00    0.0206396
  6656.00    0.0205636
  6657.00    0.0204864
  6658.00    0.0204081
  6659.00    0.0203288
  6660.00    0.0202486
  6661.00    0.0201675
  6662.00    0.0200855
  6663.00    0.0200028
  6664.00    0.0199194
  6665.00    0.0198353
  6666.00    0.0197507
  6667.00    0.0196656
  6668.00    0.0195801
  6669.00    0.0194942
  6670.00    0.0194080
  6671.00    0.0193216
  6672.00    0.0192350
  6673.00    0.0191483
  6674.00    0.0190615
  6675.00    0.0189747
  6676.00    0.0188881
  6677.00    0.0188015
  6678.00    0.0187152
  6679.00    0.0186291
  6680.00    0.0185434
  6681.00    0.0184581
  6682.00    0.0183732
  6683.00    0.0182889
  6684.00    0.0182052
  6685.00    0.0181221
  6686.00    0.0180397
  6687.00    0.0179581
  6688.00    0.0178774
  6689.00    0.0177976
  6690.00    0.0177188
  6691.00    0.0176411
  6692.00    0.0175644
  6693.00    0.0174890
  6694.00    0.0174148
  6695.00    0.0173420
  6696.00    0.0172705
  6697.00    0.0172005
  6698.00    0.0171320
  6699.00    0.0170652
  6700.00    0.0170000
  6701.00    0.0169366
  6702.00    0.0168748
  6703.00    0.0168147
  6704.00    0.0167562
  6705.00    0.0166992
  6706.00    0.0166438
  6707.00    0.0165898
  6708.00    0.0165371
  6709.00    0.0164859
  6710.00    0.0164359
  6711.00    0.0163872
  6712.00    0.0163396
  6713.00    0.0162933
  6714.00    0.0162480
  6715.00    0.0162039
  6716.00    0.0161607
  6717.00    0.0161185
  6718.00    0.0160773
  6719.00    0.0160369
  6720.00    0.0159974
  6721.00    0.0159587
  6722.00    0.0159208
  6723.00    0.0158835
  6724.00    0.0158470
  6725.00    0.0158111
  6726.00    0.0157758
  6727.00    0.0157410
  6728.00    0.0157067
  6729.00    0.0156729
  6730.00    0.0156396
  6731.00    0.0156066
  6732.00    0.0155739
  6733.00    0.0155416
  6734.00    0.0155095
  6735.00    0.0154777
  6736.00    0.0154461
  6737.00    0.0154145
  6738.00    0.0153831
  6739.00    0.0153518
  6740.00    0.0153205
  6741.00    0.0152892
  6742.00    0.0152578
  6743.00    0.0152263
  6744.00    0.0151947
  6745.00    0.0151629
  6746.00    0.0151309
  6747.00    0.0150987
  6748.00    0.0150661
  6749.00    0.0150333
  6750.00    0.0150000
  6751.00    0.0149663
  6752.00    0.0149323
  6753.00    0.0148978
  6754.00    0.0148630
  6755.00    0.0148277
  6756.00    0.0147922
  6757.00    0.0147562
  6758.00    0.0147199
  6759.00    0.0146833
  6760.00    0.0146464
  6761.00    0.0146091
  6762.00    0.0145716
  6763.00    0.0145337
  6764.00    0.0144955
  6765.00    0.0144571
  6766.00    0.0144184
  6767.00    0.0143795
  6768.00    0.0143403
  6769.00    0.0143008
  6770.00    0.0142611
  6771.00    0.0142212
  6772.00    0.0141811
  6773.00    0.0141407
  6774.00    0.0141002
  6775.00    0.0140595
  6776.00    0.0140185
  6777.00    0.0139774
  6778.00    0.0139361
  6779.00    0.0138947
  6780.00    0.0138531
  6781.00    0.0138114
  6782.00    0.0137695
  6783.00    0.0137275
  6784.00    0.0136853
  6785.00    0.0136431
  6786.00    0.0136007
  6787.00    0.0135583
  6788.00    0.0135157
  6789.00    0.0134730
  6790.00    0.0134303
  6791.00    0.0133875
  6792.00    0.0133446
  6793.00    0.0133017
  6794.00    0.0132587
  6795.00    0.0132156
  6796.00    0.0131726
  6797.00    0.0131295
  6798.00    0.0130863
  6799.00    0.0130432
  6800.00    0.0130000
  6801.00    0.0129568
  6802.00    0.0129137
  6803.00    0.0128705
  6804.00    0.0128274
  6805.00    0.0127843
  6806.00    0.0127412
  6807.00    0.0126982
  6808.00    0.0126552
  6809.00    0.0126122
  6810.00    0.0125694
  6811.00    0.0125266
  6812.00    0.0124839
  6813.00    0.0124412
  6814.00    0.0123987
  6815.00    0.0123563
  6816.00    0.0123139
  6817.00    0.0122717
  6818.00    0.0122296
  6819.00    0.0121877
  6820.00    0.0121459
  6821.00    0.0121042
  6822.00    0.0120627
  6823.00    0.0120214
  6824.00    0.0119802
  6825.00    0.0119392
  6826.00    0.0118985
  6827.00    0.0118579
  6828.00    0.0118175
  6829.00    0.0117773
  6830.00    0.0117374
  6831.00    0.0116977
  6832.00    0.0116582
  6833.00    0.0116190
  6834.00    0.0115800
  6835.00    0.0115413
  6836.00    0.0115029
  6837.00    0.0114648
  6838.00    0.0114270
  6839.00    0.0113895
  6840.00    0.0113523
  6841.00    0.0113154
  6842.00    0.0112789
  6843.00    0.0112427
  6844.00    0.0112069
  6845.00    0.0111714
  6846.00    0.0111363
  6847.00    0.0111016
  6848.00    0.0110673
  6849.00    0.0110335
  6850.00    0.0110000
  6851.00    0.0109670
  6852.00    0.0109343
  6853.00    0.0109020
  6854.00    0.0108700
  6855.00    0.0108383
  6856.00    0.0108068
  6857.00    0.0107755
  6858.00    0.0107443
  6859.00    0.0107133
  6860.00    0.0106822
  6861.00    0.0106512
  6862.00    0.0106202
  6863.00    0.0105891
  6864.00    0.0105579
  6865.00    0.0105266
  6866.00    0.0104950
  6867.00    0.0104633
  6868.00    0.0104312
  6869.00    0.0103989
  6870.00    0.0103661
  6871.00    0.0103330
  6872.00    0.0102994
  6873.00    0.0102654
  6874.00    0.0102308
  6875.00    0.0101957
  6876.00    0.0101599
  6877.00    0.0101235
  6878.00    0.0100864
  6879.00    0.0100485
  6880.00    0.0100099
  6881.00    0.0099704
  6882.00    0.0099300
  6883.00    0.0098888
  6884.00    0.0098465
  6885.00    0.0098032
  6886.00    0.0097589
  6887.00    0.0097135
  6888.00    0.0096669
  6889.00    0.0096191
  6890.00    0.0095701
  6891.00    0.0095198
  6892.00    0.0094681
  6893.00    0.0094150
  6894.00    0.0093605
  6895.00    0.0093044
  6896.00    0.0092469
  6897.00    0.0091877
  6898.00    0.0091268
  6899.00    0.0090643
  6900.00    0.0090000
  6901.00    0.0089339
  6902.00    0.0088660
  6903.00    0.0087965
  6904.00    0.0087252
  6905.00    0.0086524
  6906.00    0.0085781
  6907.00    0.0085022
  6908.00    0.0084249
  6909.00    0.0083462
  6910.00    0.0082662
  6911.00    0.0081849
  6912.00    0.0081023
  6913.00    0.0080186
  6914.00    0.0079337
  6915.00    0.0078477
  6916.00    0.0077607
  6917.00    0.0076726
  6918.00    0.0075837
  6919.00    0.0074938
  6920.00    0.0074030
  6921.00    0.0073115
  6922.00    0.0072191
  6923.00    0.0071261
  6924.00    0.0070324
  6925.00    0.0069380
  6926.00    0.0068430
  6927.00    0.0067475
  6928.00    0.0066515
  6929.00    0.0065551
  6930.00    0.0064582
  6931.00    0.0063610
  6932.00    0.0062634
  6933.00    0.0061656
  6934.00    0.0060675
  6935.00    0.0059692
  6936.00    0.0058707
  6937.00    0.0057722
  6938.00    0.0056735
  6939.00    0.0055749
  6940.00    0.0054762
  6941.00    0.0053776
  6942.00    0.0052791
  6943.00    0.0051808
  6944.00    0.0050826
  6945.00    0.0049847
  6946.00    0.0048871
  6947.00    0.0047897
  6948.00    0.0046927
  6949.00    0.0045961
  6950.00    0.0045000
  6951.00    0.0044043
  6952.00    0.0043091
  6953.00    0.0042144
  6954.00    0.0041201
  6955.00    0.0040262
  6956.00    0.0039328
  6957.00    0.0038397
  6958.00    0.0037470
  6959.00    0.0036546
  6960.00    0.0035626
  6961.00    0.0034710
  6962.00    0.0033796
  6963.00    0.0032885
  6964.00    0.0031978
  6965.00    0.0031073
  6966.00    0.0030170
  6967.00    0.0029270
  6968.00    0.0028372
  6969.00    0.0027476
  6970.00    0.0026583
  6971.00    0.0025691
  6972.00    0.0024800
  6973.00    0.0023912
  6974.00    0.0023024
  6975.00    0.0022138
  6976.00    0.0021254
  6977.00    0.0020370
  6978.00    0.0019487
  6979.00    0.0018604
  6980.00    0.0017723
  6981.00    0.0016841
  6982.00    0.0015960
  6983.00    0.0015080
  6984.00    0.0014199
  6985.00    0.0013318
  6986.00    0.0012437
  6987.00    0.0011555
  6988.00    0.0010673
  6989.00    0.0009791
  6990.00    0.0008907
  6991.00    0.0008023
  6992.00    0.0007138
  6993.00    0.0006251
  6994.00    0.0005363
  6995.00    0.0004474
  6996.00    0.0003583
  6997.00    0.0002690
  6998.00    0.0001796
  6999.00    0.0000899
  7000.00    0.0000000
