#the total throughput for the optical system including mirror+lenses+ccd, filter transmission is not included
#creator: /Users/zhuqf/research/WFST/sensitivity/throughput/compute_tot_trans.pro
#source: /Users/zhuqf/research/WFST/sensitivity/throughput/tele_trans/tele_trans.txt
#source: /Users/zhuqf/research/WFST/sensitivity/throughput/optics_trans/corrector_trans.txt
#source: /Users/zhuqf/research/WFST/sensitivity/throughput/ccd_qe/ccd_qe_sci.txt
     wave     trans_tot_sys
 3000.000         0.0005906
 3001.000         0.0006274
 3002.000         0.0006668
 3003.000         0.0007087
 3004.000         0.0007532
 3005.000         0.0008003
 3006.000         0.0008499
 3007.000         0.0009021
 3008.000         0.0009570
 3009.000         0.0010146
 3010.000         0.0010749
 3011.000         0.0011382
 3012.000         0.0012044
 3013.000         0.0012735
 3014.000         0.0013455
 3015.000         0.0014205
 3016.000         0.0014985
 3017.000         0.0015793
 3018.000         0.0016632
 3019.000         0.0017499
 3020.000         0.0018396
 3021.000         0.0019323
 3022.000         0.0020278
 3023.000         0.0021263
 3024.000         0.0022278
 3025.000         0.0023324
 3026.000         0.0024401
 3027.000         0.0025510
 3028.000         0.0026651
 3029.000         0.0027826
 3030.000         0.0029035
 3031.000         0.0030280
 3032.000         0.0031561
 3033.000         0.0032878
 3034.000         0.0034234
 3035.000         0.0035627
 3036.000         0.0037060
 3037.000         0.0038533
 3038.000         0.0040047
 3039.000         0.0041602
 3040.000         0.0043199
 3041.000         0.0044840
 3042.000         0.0046523
 3043.000         0.0048249
 3044.000         0.0050015
 3045.000         0.0051823
 3046.000         0.0053670
 3047.000         0.0055559
 3048.000         0.0057487
 3049.000         0.0059456
 3050.000         0.0061465
 3051.000         0.0063515
 3052.000         0.0065606
 3053.000         0.0067735
 3054.000         0.0069903
 3055.000         0.0072109
 3056.000         0.0074352
 3057.000         0.0076630
 3058.000         0.0078944
 3059.000         0.0081292
 3060.000         0.0083673
 3061.000         0.0086086
 3062.000         0.0088532
 3063.000         0.0091014
 3064.000         0.0093532
 3065.000         0.0096089
 3066.000         0.0098686
 3067.000         0.0101325
 3068.000         0.0104009
 3069.000         0.0106740
 3070.000         0.0109522
 3071.000         0.0112356
 3072.000         0.0115244
 3073.000         0.0118189
 3074.000         0.0121193
 3075.000         0.0124257
 3076.000         0.0127385
 3077.000         0.0130579
 3078.000         0.0133841
 3079.000         0.0137174
 3080.000         0.0140582
 3081.000         0.0144066
 3082.000         0.0147625
 3083.000         0.0151256
 3084.000         0.0154956
 3085.000         0.0158721
 3086.000         0.0162550
 3087.000         0.0166438
 3088.000         0.0170385
 3089.000         0.0174385
 3090.000         0.0178437
 3091.000         0.0182538
 3092.000         0.0186684
 3093.000         0.0190872
 3094.000         0.0195098
 3095.000         0.0199359
 3096.000         0.0203650
 3097.000         0.0207968
 3098.000         0.0212308
 3099.000         0.0216665
 3100.000         0.0221035
 3101.000         0.0225414
 3102.000         0.0229806
 3103.000         0.0234215
 3104.000         0.0238649
 3105.000         0.0243113
 3106.000         0.0247614
 3107.000         0.0252158
 3108.000         0.0256753
 3109.000         0.0261406
 3110.000         0.0266126
 3111.000         0.0270919
 3112.000         0.0275788
 3113.000         0.0280731
 3114.000         0.0285750
 3115.000         0.0290843
 3116.000         0.0296010
 3117.000         0.0301251
 3118.000         0.0306565
 3119.000         0.0311952
 3120.000         0.0317411
 3121.000         0.0322941
 3122.000         0.0328542
 3123.000         0.0334213
 3124.000         0.0339955
 3125.000         0.0345768
 3126.000         0.0351653
 3127.000         0.0357609
 3128.000         0.0363639
 3129.000         0.0369742
 3130.000         0.0375920
 3131.000         0.0382175
 3132.000         0.0388505
 3133.000         0.0394911
 3134.000         0.0401392
 3135.000         0.0407948
 3136.000         0.0414578
 3137.000         0.0421283
 3138.000         0.0428063
 3139.000         0.0434917
 3140.000         0.0441847
 3141.000         0.0448852
 3142.000         0.0455932
 3143.000         0.0463088
 3144.000         0.0470319
 3145.000         0.0477626
 3146.000         0.0485011
 3147.000         0.0492474
 3148.000         0.0500017
 3149.000         0.0507642
 3150.000         0.0515351
 3151.000         0.0523147
 3152.000         0.0531024
 3153.000         0.0538978
 3154.000         0.0547001
 3155.000         0.0555089
 3156.000         0.0563234
 3157.000         0.0571431
 3158.000         0.0579672
 3159.000         0.0587951
 3160.000         0.0596260
 3161.000         0.0604591
 3162.000         0.0612943
 3163.000         0.0621313
 3164.000         0.0629699
 3165.000         0.0638099
 3166.000         0.0646510
 3167.000         0.0654931
 3168.000         0.0663359
 3169.000         0.0671790
 3170.000         0.0680223
 3171.000         0.0688656
 3172.000         0.0697087
 3173.000         0.0705519
 3174.000         0.0713951
 3175.000         0.0722384
 3176.000         0.0730820
 3177.000         0.0739259
 3178.000         0.0747704
 3179.000         0.0756157
 3180.000         0.0764620
 3181.000         0.0773093
 3182.000         0.0781567
 3183.000         0.0790029
 3184.000         0.0798466
 3185.000         0.0806863
 3186.000         0.0815204
 3187.000         0.0823474
 3188.000         0.0831653
 3189.000         0.0839721
 3190.000         0.0847657
 3191.000         0.0855446
 3192.000         0.0863117
 3193.000         0.0870706
 3194.000         0.0878252
 3195.000         0.0885794
 3196.000         0.0893372
 3197.000         0.0901027
 3198.000         0.0908802
 3199.000         0.0916742
 3200.000         0.0924895
 3201.000         0.0933297
 3202.000         0.0941925
 3203.000         0.0950742
 3204.000         0.0959712
 3205.000         0.0968797
 3206.000         0.0977958
 3207.000         0.0987156
 3208.000         0.0996349
 3209.000         0.1005495
 3210.000         0.1014547
 3211.000         0.1023470
 3212.000         0.1032288
 3213.000         0.1041035
 3214.000         0.1049747
 3215.000         0.1058461
 3216.000         0.1067215
 3217.000         0.1076046
 3218.000         0.1084994
 3219.000         0.1094103
 3220.000         0.1103415
 3221.000         0.1112965
 3222.000         0.1122731
 3223.000         0.1132678
 3224.000         0.1142770
 3225.000         0.1152974
 3226.000         0.1163254
 3227.000         0.1173576
 3228.000         0.1183904
 3229.000         0.1194202
 3230.000         0.1204431
 3231.000         0.1214558
 3232.000         0.1224560
 3233.000         0.1234421
 3234.000         0.1244121
 3235.000         0.1253641
 3236.000         0.1262959
 3237.000         0.1272053
 3238.000         0.1280899
 3239.000         0.1289471
 3240.000         0.1297743
 3241.000         0.1305698
 3242.000         0.1313376
 3243.000         0.1320829
 3244.000         0.1328107
 3245.000         0.1335263
 3246.000         0.1342349
 3247.000         0.1349417
 3248.000         0.1356521
 3249.000         0.1363715
 3250.000         0.1371057
 3251.000         0.1378594
 3252.000         0.1386329
 3253.000         0.1394255
 3254.000         0.1402366
 3255.000         0.1410656
 3256.000         0.1419119
 3257.000         0.1427749
 3258.000         0.1436538
 3259.000         0.1445480
 3260.000         0.1454565
 3261.000         0.1463787
 3262.000         0.1473164
 3263.000         0.1482717
 3264.000         0.1492471
 3265.000         0.1502451
 3266.000         0.1512683
 3267.000         0.1523200
 3268.000         0.1534034
 3269.000         0.1545223
 3270.000         0.1556810
 3271.000         0.1568814
 3272.000         0.1581149
 3273.000         0.1593699
 3274.000         0.1606349
 3275.000         0.1618983
 3276.000         0.1631480
 3277.000         0.1643720
 3278.000         0.1655575
 3279.000         0.1666914
 3280.000         0.1677598
 3281.000         0.1687527
 3282.000         0.1696764
 3283.000         0.1705413
 3284.000         0.1713576
 3285.000         0.1721356
 3286.000         0.1728854
 3287.000         0.1736171
 3288.000         0.1743410
 3289.000         0.1750677
 3290.000         0.1758080
 3291.000         0.1765701
 3292.000         0.1773503
 3293.000         0.1781420
 3294.000         0.1789388
 3295.000         0.1797341
 3296.000         0.1805213
 3297.000         0.1812934
 3298.000         0.1820434
 3299.000         0.1827638
 3300.000         0.1834467
 3301.000         0.1840870
 3302.000         0.1846929
 3303.000         0.1852756
 3304.000         0.1858465
 3305.000         0.1864169
 3306.000         0.1869981
 3307.000         0.1876020
 3308.000         0.1882407
 3309.000         0.1889270
 3310.000         0.1896741
 3311.000         0.1904915
 3312.000         0.1913699
 3313.000         0.1922954
 3314.000         0.1932546
 3315.000         0.1942342
 3316.000         0.1952206
 3317.000         0.1962003
 3318.000         0.1971594
 3319.000         0.1980838
 3320.000         0.1989586
 3321.000         0.1997728
 3322.000         0.2005332
 3323.000         0.2012506
 3324.000         0.2019355
 3325.000         0.2025987
 3326.000         0.2032504
 3327.000         0.2039012
 3328.000         0.2045619
 3329.000         0.2052433
 3330.000         0.2059569
 3331.000         0.2067109
 3332.000         0.2075008
 3333.000         0.2083186
 3334.000         0.2091567
 3335.000         0.2100074
 3336.000         0.2108631
 3337.000         0.2117160
 3338.000         0.2125583
 3339.000         0.2133817
 3340.000         0.2141778
 3341.000         0.2149401
 3342.000         0.2156724
 3343.000         0.2163806
 3344.000         0.2170706
 3345.000         0.2177479
 3346.000         0.2184183
 3347.000         0.2190872
 3348.000         0.2197605
 3349.000         0.2204439
 3350.000         0.2211433
 3351.000         0.2218635
 3352.000         0.2226036
 3353.000         0.2233614
 3354.000         0.2241350
 3355.000         0.2249224
 3356.000         0.2257218
 3357.000         0.2265315
 3358.000         0.2273499
 3359.000         0.2281754
 3360.000         0.2290066
 3361.000         0.2298422
 3362.000         0.2306827
 3363.000         0.2315290
 3364.000         0.2323820
 3365.000         0.2332427
 3366.000         0.2341123
 3367.000         0.2349921
 3368.000         0.2358836
 3369.000         0.2367885
 3370.000         0.2377086
 3371.000         0.2386440
 3372.000         0.2395874
 3373.000         0.2405296
 3374.000         0.2414613
 3375.000         0.2423730
 3376.000         0.2432551
 3377.000         0.2440977
 3378.000         0.2448905
 3379.000         0.2456228
 3380.000         0.2462834
 3381.000         0.2468643
 3382.000         0.2473728
 3383.000         0.2478196
 3384.000         0.2482151
 3385.000         0.2485695
 3386.000         0.2488929
 3387.000         0.2491950
 3388.000         0.2494857
 3389.000         0.2497750
 3390.000         0.2500730
 3391.000         0.2503873
 3392.000         0.2507153
 3393.000         0.2510520
 3394.000         0.2513924
 3395.000         0.2517316
 3396.000         0.2520649
 3397.000         0.2523871
 3398.000         0.2526935
 3399.000         0.2529787
 3400.000         0.2532375
 3401.000         0.2534673
 3402.000         0.2536785
 3403.000         0.2538844
 3404.000         0.2540982
 3405.000         0.2543335
 3406.000         0.2546038
 3407.000         0.2549231
 3408.000         0.2553059
 3409.000         0.2557670
 3410.000         0.2563223
 3411.000         0.2569832
 3412.000         0.2577409
 3413.000         0.2585820
 3414.000         0.2594937
 3415.000         0.2604634
 3416.000         0.2614786
 3417.000         0.2625268
 3418.000         0.2635953
 3419.000         0.2646706
 3420.000         0.2657389
 3421.000         0.2667890
 3422.000         0.2678237
 3423.000         0.2688491
 3424.000         0.2698706
 3425.000         0.2708936
 3426.000         0.2719234
 3427.000         0.2729653
 3428.000         0.2740248
 3429.000         0.2751076
 3430.000         0.2762199
 3431.000         0.2773661
 3432.000         0.2785413
 3433.000         0.2797388
 3434.000         0.2809522
 3435.000         0.2821752
 3436.000         0.2834019
 3437.000         0.2846265
 3438.000         0.2858438
 3439.000         0.2870484
 3440.000         0.2882353
 3441.000         0.2893995
 3442.000         0.2905343
 3443.000         0.2916329
 3444.000         0.2926884
 3445.000         0.2936936
 3446.000         0.2946415
 3447.000         0.2955247
 3448.000         0.2963352
 3449.000         0.2970651
 3450.000         0.2977054
 3451.000         0.2982508
 3452.000         0.2987112
 3453.000         0.2990996
 3454.000         0.2994289
 3455.000         0.2997115
 3456.000         0.2999597
 3457.000         0.3001855
 3458.000         0.3004010
 3459.000         0.3006183
 3460.000         0.3008495
 3461.000         0.3011045
 3462.000         0.3013840
 3463.000         0.3016861
 3464.000         0.3020094
 3465.000         0.3023526
 3466.000         0.3027145
 3467.000         0.3030941
 3468.000         0.3034908
 3469.000         0.3039036
 3470.000         0.3043322
 3471.000         0.3047756
 3472.000         0.3052318
 3473.000         0.3056984
 3474.000         0.3061731
 3475.000         0.3066534
 3476.000         0.3071370
 3477.000         0.3076213
 3478.000         0.3081037
 3479.000         0.3085815
 3480.000         0.3090517
 3481.000         0.3095122
 3482.000         0.3099657
 3483.000         0.3104160
 3484.000         0.3108665
 3485.000         0.3113208
 3486.000         0.3117823
 3487.000         0.3122544
 3488.000         0.3127405
 3489.000         0.3132442
 3490.000         0.3137691
 3491.000         0.3143183
 3492.000         0.3148907
 3493.000         0.3154849
 3494.000         0.3160994
 3495.000         0.3167329
 3496.000         0.3173842
 3497.000         0.3180523
 3498.000         0.3187363
 3499.000         0.3194355
 3500.000         0.3201491
 3501.000         0.3208766
 3502.000         0.3216165
 3503.000         0.3223674
 3504.000         0.3231279
 3505.000         0.3238966
 3506.000         0.3246723
 3507.000         0.3254536
 3508.000         0.3262393
 3509.000         0.3270279
 3510.000         0.3278180
 3511.000         0.3286090
 3512.000         0.3294032
 3513.000         0.3302040
 3514.000         0.3310143
 3515.000         0.3318376
 3516.000         0.3326768
 3517.000         0.3335353
 3518.000         0.3344164
 3519.000         0.3353234
 3520.000         0.3362599
 3521.000         0.3372281
 3522.000         0.3382255
 3523.000         0.3392479
 3524.000         0.3402916
 3525.000         0.3413525
 3526.000         0.3424267
 3527.000         0.3435103
 3528.000         0.3445990
 3529.000         0.3456887
 3530.000         0.3467750
 3531.000         0.3478549
 3532.000         0.3489312
 3533.000         0.3500083
 3534.000         0.3510905
 3535.000         0.3521824
 3536.000         0.3532883
 3537.000         0.3544130
 3538.000         0.3555613
 3539.000         0.3567383
 3540.000         0.3579497
 3541.000         0.3591985
 3542.000         0.3604772
 3543.000         0.3617758
 3544.000         0.3630843
 3545.000         0.3643928
 3546.000         0.3656913
 3547.000         0.3669696
 3548.000         0.3682173
 3549.000         0.3694236
 3550.000         0.3705776
 3551.000         0.3716701
 3552.000         0.3727018
 3553.000         0.3736757
 3554.000         0.3745941
 3555.000         0.3754595
 3556.000         0.3762739
 3557.000         0.3770393
 3558.000         0.3777575
 3559.000         0.3784302
 3560.000         0.3790589
 3561.000         0.3796462
 3562.000         0.3801973
 3563.000         0.3807182
 3564.000         0.3812151
 3565.000         0.3816941
 3566.000         0.3821617
 3567.000         0.3826241
 3568.000         0.3830879
 3569.000         0.3835599
 3570.000         0.3840470
 3571.000         0.3845555
 3572.000         0.3850887
 3573.000         0.3856495
 3574.000         0.3862406
 3575.000         0.3868653
 3576.000         0.3875270
 3577.000         0.3882292
 3578.000         0.3889755
 3579.000         0.3897698
 3580.000         0.3906161
 3581.000         0.3915166
 3582.000         0.3924652
 3583.000         0.3934537
 3584.000         0.3944742
 3585.000         0.3955184
 3586.000         0.3965779
 3587.000         0.3976442
 3588.000         0.3987085
 3589.000         0.3997616
 3590.000         0.4007941
 3591.000         0.4017988
 3592.000         0.4027784
 3593.000         0.4037381
 3594.000         0.4046831
 3595.000         0.4056182
 3596.000         0.4065483
 3597.000         0.4074785
 3598.000         0.4084138
 3599.000         0.4093595
 3600.000         0.4103214
 3601.000         0.4113037
 3602.000         0.4123036
 3603.000         0.4133170
 3604.000         0.4143401
 3605.000         0.4153693
 3606.000         0.4164016
 3607.000         0.4174338
 3608.000         0.4184632
 3609.000         0.4194873
 3610.000         0.4205037
 3611.000         0.4215091
 3612.000         0.4224971
 3613.000         0.4234602
 3614.000         0.4243909
 3615.000         0.4252815
 3616.000         0.4261241
 3617.000         0.4269105
 3618.000         0.4276320
 3619.000         0.4282799
 3620.000         0.4288445
 3621.000         0.4293205
 3622.000         0.4297209
 3623.000         0.4300631
 3624.000         0.4303643
 3625.000         0.4306413
 3626.000         0.4309112
 3627.000         0.4311910
 3628.000         0.4314980
 3629.000         0.4318500
 3630.000         0.4322650
 3631.000         0.4327579
 3632.000         0.4333273
 3633.000         0.4339681
 3634.000         0.4346760
 3635.000         0.4354470
 3636.000         0.4362775
 3637.000         0.4371642
 3638.000         0.4381039
 3639.000         0.4390936
 3640.000         0.4401303
 3641.000         0.4412114
 3642.000         0.4423374
 3643.000         0.4435090
 3644.000         0.4447271
 3645.000         0.4459925
 3646.000         0.4473063
 3647.000         0.4486695
 3648.000         0.4500836
 3649.000         0.4515500
 3650.000         0.4530708
 3651.000         0.4546446
 3652.000         0.4562556
 3653.000         0.4578842
 3654.000         0.4595109
 3655.000         0.4611156
 3656.000         0.4626781
 3657.000         0.4641774
 3658.000         0.4655916
 3659.000         0.4668981
 3660.000         0.4680729
 3661.000         0.4691002
 3662.000         0.4699994
 3663.000         0.4707984
 3664.000         0.4715247
 3665.000         0.4722056
 3666.000         0.4728685
 3667.000         0.4735409
 3668.000         0.4742509
 3669.000         0.4750273
 3670.000         0.4759002
 3671.000         0.4768918
 3672.000         0.4779902
 3673.000         0.4791754
 3674.000         0.4804280
 3675.000         0.4817294
 3676.000         0.4830612
 3677.000         0.4844049
 3678.000         0.4857422
 3679.000         0.4870544
 3680.000         0.4883223
 3681.000         0.4895318
 3682.000         0.4906908
 3683.000         0.4918128
 3684.000         0.4929106
 3685.000         0.4939972
 3686.000         0.4950854
 3687.000         0.4961882
 3688.000         0.4973190
 3689.000         0.4984915
 3690.000         0.4997202
 3691.000         0.5010139
 3692.000         0.5023571
 3693.000         0.5037283
 3694.000         0.5051063
 3695.000         0.5064699
 3696.000         0.5077980
 3697.000         0.5090688
 3698.000         0.5102604
 3699.000         0.5113501
 3700.000         0.5123142
 3701.000         0.5131369
 3702.000         0.5138353
 3703.000         0.5144341
 3704.000         0.5149579
 3705.000         0.5154305
 3706.000         0.5158756
 3707.000         0.5163170
 3708.000         0.5167784
 3709.000         0.5172840
 3710.000         0.5178585
 3711.000         0.5185218
 3712.000         0.5192727
 3713.000         0.5201053
 3714.000         0.5210143
 3715.000         0.5219947
 3716.000         0.5230421
 3717.000         0.5241524
 3718.000         0.5253214
 3719.000         0.5265451
 3720.000         0.5278195
 3721.000         0.5291423
 3722.000         0.5305192
 3723.000         0.5319583
 3724.000         0.5334675
 3725.000         0.5350552
 3726.000         0.5367304
 3727.000         0.5385028
 3728.000         0.5403829
 3729.000         0.5423822
 3730.000         0.5445135
 3731.000         0.5467816
 3732.000         0.5491546
 3733.000         0.5515919
 3734.000         0.5540528
 3735.000         0.5564964
 3736.000         0.5588811
 3737.000         0.5611642
 3738.000         0.5633019
 3739.000         0.5652485
 3740.000         0.5669564
 3741.000         0.5683919
 3742.000         0.5695836
 3743.000         0.5705749
 3744.000         0.5714083
 3745.000         0.5721254
 3746.000         0.5727677
 3747.000         0.5733764
 3748.000         0.5739933
 3749.000         0.5746608
 3750.000         0.5754223
 3751.000         0.5763126
 3752.000         0.5773279
 3753.000         0.5784551
 3754.000         0.5796826
 3755.000         0.5809998
 3756.000         0.5823969
 3757.000         0.5838647
 3758.000         0.5853948
 3759.000         0.5869793
 3760.000         0.5886107
 3761.000         0.5902800
 3762.000         0.5919713
 3763.000         0.5936672
 3764.000         0.5953496
 3765.000         0.5970003
 3766.000         0.5986004
 3767.000         0.6001303
 3768.000         0.6015696
 3769.000         0.6028965
 3770.000         0.6040880
 3771.000         0.6051280
 3772.000         0.6060327
 3773.000         0.6068253
 3774.000         0.6075283
 3775.000         0.6081634
 3776.000         0.6087519
 3777.000         0.6093150
 3778.000         0.6098738
 3779.000         0.6104495
 3780.000         0.6110641
 3781.000         0.6117343
 3782.000         0.6124556
 3783.000         0.6132185
 3784.000         0.6140137
 3785.000         0.6148327
 3786.000         0.6156670
 3787.000         0.6165085
 3788.000         0.6173493
 3789.000         0.6181814
 3790.000         0.6189969
 3791.000         0.6197897
 3792.000         0.6205608
 3793.000         0.6213131
 3794.000         0.6220495
 3795.000         0.6227727
 3796.000         0.6234854
 3797.000         0.6241906
 3798.000         0.6248910
 3799.000         0.6255895
 3800.000         0.6262892
 3801.000         0.6269921
 3802.000         0.6276956
 3803.000         0.6283959
 3804.000         0.6290894
 3805.000         0.6297724
 3806.000         0.6304412
 3807.000         0.6310920
 3808.000         0.6317207
 3809.000         0.6323232
 3810.000         0.6328951
 3811.000         0.6334334
 3812.000         0.6339429
 3813.000         0.6344297
 3814.000         0.6349000
 3815.000         0.6353597
 3816.000         0.6358145
 3817.000         0.6362700
 3818.000         0.6367320
 3819.000         0.6372060
 3820.000         0.6376977
 3821.000         0.6382112
 3822.000         0.6387449
 3823.000         0.6392956
 3824.000         0.6398600
 3825.000         0.6404348
 3826.000         0.6410167
 3827.000         0.6416020
 3828.000         0.6421869
 3829.000         0.6427674
 3830.000         0.6433391
 3831.000         0.6439003
 3832.000         0.6444609
 3833.000         0.6450334
 3834.000         0.6456304
 3835.000         0.6462643
 3836.000         0.6469479
 3837.000         0.6476942
 3838.000         0.6485164
 3839.000         0.6494285
 3840.000         0.6504449
 3841.000         0.6515754
 3842.000         0.6528080
 3843.000         0.6541254
 3844.000         0.6555112
 3845.000         0.6569491
 3846.000         0.6584230
 3847.000         0.6599171
 3848.000         0.6614155
 3849.000         0.6629022
 3850.000         0.6643611
 3851.000         0.6657771
 3852.000         0.6671411
 3853.000         0.6684451
 3854.000         0.6696807
 3855.000         0.6708391
 3856.000         0.6719110
 3857.000         0.6728865
 3858.000         0.6737554
 3859.000         0.6745066
 3860.000         0.6751287
 3861.000         0.6756150
 3862.000         0.6759809
 3863.000         0.6762469
 3864.000         0.6764332
 3865.000         0.6765597
 3866.000         0.6766462
 3867.000         0.6767125
 3868.000         0.6767786
 3869.000         0.6768647
 3870.000         0.6769916
 3871.000         0.6771760
 3872.000         0.6774163
 3873.000         0.6777073
 3874.000         0.6780441
 3875.000         0.6784220
 3876.000         0.6788370
 3877.000         0.6792851
 3878.000         0.6797622
 3879.000         0.6802646
 3880.000         0.6807883
 3881.000         0.6813299
 3882.000         0.6818890
 3883.000         0.6824660
 3884.000         0.6830609
 3885.000         0.6836736
 3886.000         0.6843040
 3887.000         0.6849516
 3888.000         0.6856163
 3889.000         0.6862979
 3890.000         0.6869960
 3891.000         0.6877092
 3892.000         0.6884302
 3893.000         0.6891499
 3894.000         0.6898598
 3895.000         0.6905511
 3896.000         0.6912151
 3897.000         0.6918432
 3898.000         0.6924265
 3899.000         0.6929562
 3900.000         0.6934232
 3901.000         0.6938202
 3902.000         0.6941465
 3903.000         0.6944034
 3904.000         0.6945915
 3905.000         0.6947114
 3906.000         0.6947634
 3907.000         0.6947473
 3908.000         0.6946626
 3909.000         0.6945082
 3910.000         0.6942828
 3911.000         0.6939877
 3912.000         0.6936367
 3913.000         0.6932464
 3914.000         0.6928332
 3915.000         0.6924130
 3916.000         0.6920015
 3917.000         0.6916146
 3918.000         0.6912678
 3919.000         0.6909773
 3920.000         0.6907591
 3921.000         0.6906254
 3922.000         0.6905711
 3923.000         0.6905869
 3924.000         0.6906639
 3925.000         0.6907936
 3926.000         0.6909676
 3927.000         0.6911778
 3928.000         0.6914161
 3929.000         0.6916744
 3930.000         0.6919446
 3931.000         0.6922207
 3932.000         0.6925055
 3933.000         0.6928039
 3934.000         0.6931208
 3935.000         0.6934610
 3936.000         0.6938295
 3937.000         0.6942314
 3938.000         0.6946717
 3939.000         0.6951561
 3940.000         0.6956903
 3941.000         0.6962769
 3942.000         0.6969046
 3943.000         0.6975591
 3944.000         0.6982261
 3945.000         0.6988913
 3946.000         0.6995405
 3947.000         0.7001592
 3948.000         0.7007328
 3949.000         0.7012462
 3950.000         0.7016839
 3951.000         0.7020340
 3952.000         0.7023009
 3953.000         0.7024925
 3954.000         0.7026164
 3955.000         0.7026798
 3956.000         0.7026900
 3957.000         0.7026539
 3958.000         0.7025786
 3959.000         0.7024715
 3960.000         0.7023399
 3961.000         0.7021889
 3962.000         0.7020122
 3963.000         0.7018011
 3964.000         0.7015473
 3965.000         0.7012424
 3966.000         0.7008781
 3967.000         0.7004462
 3968.000         0.6999377
 3969.000         0.6993438
 3970.000         0.6986548
 3971.000         0.6978665
 3972.000         0.6969994
 3973.000         0.6960793
 3974.000         0.6951312
 3975.000         0.6941799
 3976.000         0.6932499
 3977.000         0.6923656
 3978.000         0.6915514
 3979.000         0.6908321
 3980.000         0.6902331
 3981.000         0.6897733
 3982.000         0.6894442
 3983.000         0.6892310
 3984.000         0.6891196
 3985.000         0.6890967
 3986.000         0.6891493
 3987.000         0.6892648
 3988.000         0.6894309
 3989.000         0.6896353
 3990.000         0.6898659
 3991.000         0.6901125
 3992.000         0.6903720
 3993.000         0.6906434
 3994.000         0.6909253
 3995.000         0.6912162
 3996.000         0.6915147
 3997.000         0.6918189
 3998.000         0.6921269
 3999.000         0.6924367
 4000.000         0.6927461
 4001.000         0.6930538
 4002.000         0.6933631
 4003.000         0.6936779
 4004.000         0.6940025
 4005.000         0.6943410
 4006.000         0.6946976
 4007.000         0.6950767
 4008.000         0.6954830
 4009.000         0.6959211
 4010.000         0.6963965
 4011.000         0.6969118
 4012.000         0.6974593
 4013.000         0.6980284
 4014.000         0.6986093
 4015.000         0.6991918
 4016.000         0.6997663
 4017.000         0.7003228
 4018.000         0.7008516
 4019.000         0.7013426
 4020.000         0.7017857
 4021.000         0.7021728
 4022.000         0.7025061
 4023.000         0.7027900
 4024.000         0.7030286
 4025.000         0.7032255
 4026.000         0.7033845
 4027.000         0.7035088
 4028.000         0.7036016
 4029.000         0.7036657
 4030.000         0.7037040
 4031.000         0.7037194
 4032.000         0.7037171
 4033.000         0.7037025
 4034.000         0.7036811
 4035.000         0.7036582
 4036.000         0.7036392
 4037.000         0.7036295
 4038.000         0.7036346
 4039.000         0.7036602
 4040.000         0.7037122
 4041.000         0.7037946
 4042.000         0.7039047
 4043.000         0.7040377
 4044.000         0.7041895
 4045.000         0.7043556
 4046.000         0.7045320
 4047.000         0.7047146
 4048.000         0.7048994
 4049.000         0.7050824
 4050.000         0.7052594
 4051.000         0.7054269
 4052.000         0.7055837
 4053.000         0.7057289
 4054.000         0.7058617
 4055.000         0.7059810
 4056.000         0.7060857
 4057.000         0.7061745
 4058.000         0.7062461
 4059.000         0.7062989
 4060.000         0.7063311
 4061.000         0.7063426
 4062.000         0.7063388
 4063.000         0.7063267
 4064.000         0.7063134
 4065.000         0.7063058
 4066.000         0.7063110
 4067.000         0.7063359
 4068.000         0.7063880
 4069.000         0.7064748
 4070.000         0.7066042
 4071.000         0.7067820
 4072.000         0.7070049
 4073.000         0.7072676
 4074.000         0.7075652
 4075.000         0.7078928
 4076.000         0.7082459
 4077.000         0.7086199
 4078.000         0.7090104
 4079.000         0.7094130
 4080.000         0.7098230
 4081.000         0.7102364
 4082.000         0.7106511
 4083.000         0.7110655
 4084.000         0.7114779
 4085.000         0.7118864
 4086.000         0.7122888
 4087.000         0.7126831
 4088.000         0.7130669
 4089.000         0.7134380
 4090.000         0.7137939
 4091.000         0.7141315
 4092.000         0.7144456
 4093.000         0.7147302
 4094.000         0.7149791
 4095.000         0.7151863
 4096.000         0.7153452
 4097.000         0.7154493
 4098.000         0.7154918
 4099.000         0.7154656
 4100.000         0.7153634
 4101.000         0.7151801
 4102.000         0.7149205
 4103.000         0.7145917
 4104.000         0.7142008
 4105.000         0.7137541
 4106.000         0.7132581
 4107.000         0.7127189
 4108.000         0.7121424
 4109.000         0.7115345
 4110.000         0.7109007
 4111.000         0.7102469
 4112.000         0.7095809
 4113.000         0.7089105
 4114.000         0.7082437
 4115.000         0.7075884
 4116.000         0.7069526
 4117.000         0.7063444
 4118.000         0.7057721
 4119.000         0.7052441
 4120.000         0.7047691
 4121.000         0.7043535
 4122.000         0.7039938
 4123.000         0.7036846
 4124.000         0.7034203
 4125.000         0.7031959
 4126.000         0.7030065
 4127.000         0.7028472
 4128.000         0.7027133
 4129.000         0.7026002
 4130.000         0.7025032
 4131.000         0.7024185
 4132.000         0.7023448
 4133.000         0.7022816
 4134.000         0.7022282
 4135.000         0.7021840
 4136.000         0.7021482
 4137.000         0.7021199
 4138.000         0.7020984
 4139.000         0.7020826
 4140.000         0.7020716
 4141.000         0.7020646
 4142.000         0.7020621
 4143.000         0.7020651
 4144.000         0.7020744
 4145.000         0.7020908
 4146.000         0.7021151
 4147.000         0.7021484
 4148.000         0.7021916
 4149.000         0.7022456
 4150.000         0.7023119
 4151.000         0.7023900
 4152.000         0.7024740
 4153.000         0.7025561
 4154.000         0.7026290
 4155.000         0.7026851
 4156.000         0.7027168
 4157.000         0.7027166
 4158.000         0.7026765
 4159.000         0.7025886
 4160.000         0.7024447
 4161.000         0.7022393
 4162.000         0.7019797
 4163.000         0.7016762
 4164.000         0.7013388
 4165.000         0.7009773
 4166.000         0.7006014
 4167.000         0.7002207
 4168.000         0.6998450
 4169.000         0.6994839
 4170.000         0.6991476
 4171.000         0.6988443
 4172.000         0.6985746
 4173.000         0.6983378
 4174.000         0.6981331
 4175.000         0.6979603
 4176.000         0.6978192
 4177.000         0.6977099
 4178.000         0.6976328
 4179.000         0.6975881
 4180.000         0.6975765
 4181.000         0.6975975
 4182.000         0.6976457
 4183.000         0.6977144
 4184.000         0.6977972
 4185.000         0.6978874
 4186.000         0.6979784
 4187.000         0.6980633
 4188.000         0.6981351
 4189.000         0.6981867
 4190.000         0.6982106
 4191.000         0.6982012
 4192.000         0.6981612
 4193.000         0.6980955
 4194.000         0.6980084
 4195.000         0.6979043
 4196.000         0.6977873
 4197.000         0.6976617
 4198.000         0.6975316
 4199.000         0.6974012
 4200.000         0.6972750
 4201.000         0.6971563
 4202.000         0.6970438
 4203.000         0.6969352
 4204.000         0.6968283
 4205.000         0.6967209
 4206.000         0.6966113
 4207.000         0.6964974
 4208.000         0.6963773
 4209.000         0.6962491
 4210.000         0.6961107
 4211.000         0.6959616
 4212.000         0.6958079
 4213.000         0.6956574
 4214.000         0.6955177
 4215.000         0.6953962
 4216.000         0.6953007
 4217.000         0.6952385
 4218.000         0.6952174
 4219.000         0.6952453
 4220.000         0.6953301
 4221.000         0.6954773
 4222.000         0.6956815
 4223.000         0.6959347
 4224.000         0.6962292
 4225.000         0.6965574
 4226.000         0.6969121
 4227.000         0.6972858
 4228.000         0.6976713
 4229.000         0.6980617
 4230.000         0.6984496
 4231.000         0.6988281
 4232.000         0.6991895
 4233.000         0.6995263
 4234.000         0.6998308
 4235.000         0.7000952
 4236.000         0.7003116
 4237.000         0.7004716
 4238.000         0.7005670
 4239.000         0.7005891
 4240.000         0.7005289
 4241.000         0.7003810
 4242.000         0.7001541
 4243.000         0.6998605
 4244.000         0.6995124
 4245.000         0.6991215
 4246.000         0.6986997
 4247.000         0.6982586
 4248.000         0.6978100
 4249.000         0.6973657
 4250.000         0.6969377
 4251.000         0.6965359
 4252.000         0.6961616
 4253.000         0.6958138
 4254.000         0.6954920
 4255.000         0.6951959
 4256.000         0.6949250
 4257.000         0.6946794
 4258.000         0.6944588
 4259.000         0.6942632
 4260.000         0.6940923
 4261.000         0.6939461
 4262.000         0.6938258
 4263.000         0.6937325
 4264.000         0.6936675
 4265.000         0.6936318
 4266.000         0.6936266
 4267.000         0.6936532
 4268.000         0.6937127
 4269.000         0.6938067
 4270.000         0.6939369
 4271.000         0.6941030
 4272.000         0.6942961
 4273.000         0.6945053
 4274.000         0.6947201
 4275.000         0.6949296
 4276.000         0.6951233
 4277.000         0.6952904
 4278.000         0.6954200
 4279.000         0.6955010
 4280.000         0.6955220
 4281.000         0.6954748
 4282.000         0.6953662
 4283.000         0.6952058
 4284.000         0.6950034
 4285.000         0.6947682
 4286.000         0.6945095
 4287.000         0.6942365
 4288.000         0.6939581
 4289.000         0.6936837
 4290.000         0.6934223
 4291.000         0.6931817
 4292.000         0.6929618
 4293.000         0.6927611
 4294.000         0.6925781
 4295.000         0.6924116
 4296.000         0.6922607
 4297.000         0.6921244
 4298.000         0.6920020
 4299.000         0.6918929
 4300.000         0.6917964
 4301.000         0.6917120
 4302.000         0.6916390
 4303.000         0.6915767
 4304.000         0.6915243
 4305.000         0.6914811
 4306.000         0.6914465
 4307.000         0.6914196
 4308.000         0.6913997
 4309.000         0.6913858
 4310.000         0.6913771
 4311.000         0.6913732
 4312.000         0.6913758
 4313.000         0.6913870
 4314.000         0.6914090
 4315.000         0.6914440
 4316.000         0.6914940
 4317.000         0.6915610
 4318.000         0.6916472
 4319.000         0.6917545
 4320.000         0.6918852
 4321.000         0.6920403
 4322.000         0.6922177
 4323.000         0.6924140
 4324.000         0.6926261
 4325.000         0.6928510
 4326.000         0.6930857
 4327.000         0.6933270
 4328.000         0.6935721
 4329.000         0.6938182
 4330.000         0.6940624
 4331.000         0.6943012
 4332.000         0.6945287
 4333.000         0.6947382
 4334.000         0.6949231
 4335.000         0.6950767
 4336.000         0.6951921
 4337.000         0.6952625
 4338.000         0.6952808
 4339.000         0.6952397
 4340.000         0.6951317
 4341.000         0.6949522
 4342.000         0.6947081
 4343.000         0.6944092
 4344.000         0.6940649
 4345.000         0.6936846
 4346.000         0.6932775
 4347.000         0.6928527
 4348.000         0.6924192
 4349.000         0.6919860
 4350.000         0.6915622
 4351.000         0.6911563
 4352.000         0.6907750
 4353.000         0.6904243
 4354.000         0.6901106
 4355.000         0.6898403
 4356.000         0.6896200
 4357.000         0.6894565
 4358.000         0.6893567
 4359.000         0.6893279
 4360.000         0.6893774
 4361.000         0.6895100
 4362.000         0.6897193
 4363.000         0.6899963
 4364.000         0.6903321
 4365.000         0.6907180
 4366.000         0.6911455
 4367.000         0.6916061
 4368.000         0.6920915
 4369.000         0.6925932
 4370.000         0.6931029
 4371.000         0.6936127
 4372.000         0.6941161
 4373.000         0.6946071
 4374.000         0.6950796
 4375.000         0.6955272
 4376.000         0.6959439
 4377.000         0.6963231
 4378.000         0.6966583
 4379.000         0.6969431
 4380.000         0.6971706
 4381.000         0.6973358
 4382.000         0.6974412
 4383.000         0.6974909
 4384.000         0.6974887
 4385.000         0.6974387
 4386.000         0.6973444
 4387.000         0.6972093
 4388.000         0.6970369
 4389.000         0.6968303
 4390.000         0.6965927
 4391.000         0.6963279
 4392.000         0.6960435
 4393.000         0.6957481
 4394.000         0.6954500
 4395.000         0.6951577
 4396.000         0.6948795
 4397.000         0.6946240
 4398.000         0.6943999
 4399.000         0.6942161
 4400.000         0.6940816
 4401.000         0.6940028
 4402.000         0.6939739
 4403.000         0.6939865
 4404.000         0.6940322
 4405.000         0.6941030
 4406.000         0.6941908
 4407.000         0.6942877
 4408.000         0.6943858
 4409.000         0.6944771
 4410.000         0.6945534
 4411.000         0.6946080
 4412.000         0.6946398
 4413.000         0.6946492
 4414.000         0.6946361
 4415.000         0.6946004
 4416.000         0.6945419
 4417.000         0.6944600
 4418.000         0.6943542
 4419.000         0.6942235
 4420.000         0.6940671
 4421.000         0.6938850
 4422.000         0.6936822
 4423.000         0.6934645
 4424.000         0.6932376
 4425.000         0.6930075
 4426.000         0.6927800
 4427.000         0.6925611
 4428.000         0.6923568
 4429.000         0.6921735
 4430.000         0.6920175
 4431.000         0.6918936
 4432.000         0.6917992
 4433.000         0.6917298
 4434.000         0.6916813
 4435.000         0.6916496
 4436.000         0.6916308
 4437.000         0.6916209
 4438.000         0.6916160
 4439.000         0.6916121
 4440.000         0.6916049
 4441.000         0.6915916
 4442.000         0.6915758
 4443.000         0.6915624
 4444.000         0.6915562
 4445.000         0.6915617
 4446.000         0.6915837
 4447.000         0.6916267
 4448.000         0.6916956
 4449.000         0.6917952
 4450.000         0.6919304
 4451.000         0.6921050
 4452.000         0.6923153
 4453.000         0.6925564
 4454.000         0.6928235
 4455.000         0.6931121
 4456.000         0.6934175
 4457.000         0.6937355
 4458.000         0.6940616
 4459.000         0.6943915
 4460.000         0.6947207
 4461.000         0.6950457
 4462.000         0.6953658
 4463.000         0.6956811
 4464.000         0.6959915
 4465.000         0.6962971
 4466.000         0.6965977
 4467.000         0.6968933
 4468.000         0.6971839
 4469.000         0.6974694
 4470.000         0.6977496
 4471.000         0.6980239
 4472.000         0.6982881
 4473.000         0.6985370
 4474.000         0.6987659
 4475.000         0.6989694
 4476.000         0.6991427
 4477.000         0.6992805
 4478.000         0.6993775
 4479.000         0.6994282
 4480.000         0.6994270
 4481.000         0.6993701
 4482.000         0.6992615
 4483.000         0.6991073
 4484.000         0.6989131
 4485.000         0.6986845
 4486.000         0.6984271
 4487.000         0.6981461
 4488.000         0.6978468
 4489.000         0.6975344
 4490.000         0.6972142
 4491.000         0.6968911
 4492.000         0.6965691
 4493.000         0.6962520
 4494.000         0.6959437
 4495.000         0.6956481
 4496.000         0.6953693
 4497.000         0.6951115
 4498.000         0.6948789
 4499.000         0.6946760
 4500.000         0.6945075
 4501.000         0.6943763
 4502.000         0.6942783
 4503.000         0.6942075
 4504.000         0.6941580
 4505.000         0.6941242
 4506.000         0.6941004
 4507.000         0.6940807
 4508.000         0.6940594
 4509.000         0.6940303
 4510.000         0.6939873
 4511.000         0.6939259
 4512.000         0.6938502
 4513.000         0.6937660
 4514.000         0.6936787
 4515.000         0.6935938
 4516.000         0.6935167
 4517.000         0.6934526
 4518.000         0.6934068
 4519.000         0.6933846
 4520.000         0.6933915
 4521.000         0.6934313
 4522.000         0.6935021
 4523.000         0.6936000
 4524.000         0.6937216
 4525.000         0.6938637
 4526.000         0.6940232
 4527.000         0.6941970
 4528.000         0.6943824
 4529.000         0.6945767
 4530.000         0.6947771
 4531.000         0.6949809
 4532.000         0.6951834
 4533.000         0.6953796
 4534.000         0.6955646
 4535.000         0.6957335
 4536.000         0.6958813
 4537.000         0.6960032
 4538.000         0.6960939
 4539.000         0.6961485
 4540.000         0.6961616
 4541.000         0.6961296
 4542.000         0.6960559
 4543.000         0.6959456
 4544.000         0.6958034
 4545.000         0.6956342
 4546.000         0.6954426
 4547.000         0.6952330
 4548.000         0.6950099
 4549.000         0.6947777
 4550.000         0.6945407
 4551.000         0.6943033
 4552.000         0.6940704
 4553.000         0.6938470
 4554.000         0.6936382
 4555.000         0.6934492
 4556.000         0.6932850
 4557.000         0.6931509
 4558.000         0.6930520
 4559.000         0.6929939
 4560.000         0.6929820
 4561.000         0.6930203
 4562.000         0.6931063
 4563.000         0.6932358
 4564.000         0.6934051
 4565.000         0.6936103
 4566.000         0.6938477
 4567.000         0.6941139
 4568.000         0.6944055
 4569.000         0.6947193
 4570.000         0.6950519
 4571.000         0.6953999
 4572.000         0.6957585
 4573.000         0.6961224
 4574.000         0.6964864
 4575.000         0.6968452
 4576.000         0.6971937
 4577.000         0.6975266
 4578.000         0.6978385
 4579.000         0.6981240
 4580.000         0.6983774
 4581.000         0.6985949
 4582.000         0.6987799
 4583.000         0.6989376
 4584.000         0.6990729
 4585.000         0.6991908
 4586.000         0.6992963
 4587.000         0.6993940
 4588.000         0.6994891
 4589.000         0.6995863
 4590.000         0.6996906
 4591.000         0.6998063
 4592.000         0.6999334
 4593.000         0.7000711
 4594.000         0.7002188
 4595.000         0.7003759
 4596.000         0.7005419
 4597.000         0.7007163
 4598.000         0.7008987
 4599.000         0.7010887
 4600.000         0.7012857
 4601.000         0.7014890
 4602.000         0.7016969
 4603.000         0.7019074
 4604.000         0.7021183
 4605.000         0.7023276
 4606.000         0.7025328
 4607.000         0.7027318
 4608.000         0.7029222
 4609.000         0.7031013
 4610.000         0.7032667
 4611.000         0.7034163
 4612.000         0.7035502
 4613.000         0.7036695
 4614.000         0.7037747
 4615.000         0.7038667
 4616.000         0.7039461
 4617.000         0.7040135
 4618.000         0.7040698
 4619.000         0.7041156
 4620.000         0.7041518
 4621.000         0.7041789
 4622.000         0.7041962
 4623.000         0.7042026
 4624.000         0.7041972
 4625.000         0.7041790
 4626.000         0.7041471
 4627.000         0.7041007
 4628.000         0.7040387
 4629.000         0.7039603
 4630.000         0.7038643
 4631.000         0.7037504
 4632.000         0.7036205
 4633.000         0.7034774
 4634.000         0.7033237
 4635.000         0.7031617
 4636.000         0.7029940
 4637.000         0.7028229
 4638.000         0.7026508
 4639.000         0.7024799
 4640.000         0.7023125
 4641.000         0.7021508
 4642.000         0.7019967
 4643.000         0.7018520
 4644.000         0.7017187
 4645.000         0.7015985
 4646.000         0.7014936
 4647.000         0.7014058
 4648.000         0.7013372
 4649.000         0.7012901
 4650.000         0.7012666
 4651.000         0.7012687
 4652.000         0.7012967
 4653.000         0.7013505
 4654.000         0.7014300
 4655.000         0.7015355
 4656.000         0.7016672
 4657.000         0.7018253
 4658.000         0.7020103
 4659.000         0.7022225
 4660.000         0.7024624
 4661.000         0.7027298
 4662.000         0.7030211
 4663.000         0.7033317
 4664.000         0.7036573
 4665.000         0.7039934
 4666.000         0.7043357
 4667.000         0.7046798
 4668.000         0.7050213
 4669.000         0.7053556
 4670.000         0.7056784
 4671.000         0.7059851
 4672.000         0.7062706
 4673.000         0.7065297
 4674.000         0.7067572
 4675.000         0.7069476
 4676.000         0.7070954
 4677.000         0.7071949
 4678.000         0.7072404
 4679.000         0.7072259
 4680.000         0.7071451
 4681.000         0.7069942
 4682.000         0.7067798
 4683.000         0.7065108
 4684.000         0.7061960
 4685.000         0.7058438
 4686.000         0.7054630
 4687.000         0.7050620
 4688.000         0.7046493
 4689.000         0.7042333
 4690.000         0.7038226
 4691.000         0.7034250
 4692.000         0.7030437
 4693.000         0.7026813
 4694.000         0.7023403
 4695.000         0.7020235
 4696.000         0.7017337
 4697.000         0.7014740
 4698.000         0.7012473
 4699.000         0.7010568
 4700.000         0.7009057
 4701.000         0.7007961
 4702.000         0.7007259
 4703.000         0.7006919
 4704.000         0.7006911
 4705.000         0.7007204
 4706.000         0.7007767
 4707.000         0.7008571
 4708.000         0.7009586
 4709.000         0.7010782
 4710.000         0.7012132
 4711.000         0.7013604
 4712.000         0.7015157
 4713.000         0.7016744
 4714.000         0.7018321
 4715.000         0.7019843
 4716.000         0.7021265
 4717.000         0.7022542
 4718.000         0.7023629
 4719.000         0.7024478
 4720.000         0.7025045
 4721.000         0.7025295
 4722.000         0.7025249
 4723.000         0.7024943
 4724.000         0.7024412
 4725.000         0.7023688
 4726.000         0.7022805
 4727.000         0.7021795
 4728.000         0.7020692
 4729.000         0.7019527
 4730.000         0.7018334
 4731.000         0.7017142
 4732.000         0.7015962
 4733.000         0.7014806
 4734.000         0.7013681
 4735.000         0.7012597
 4736.000         0.7011565
 4737.000         0.7010593
 4738.000         0.7009691
 4739.000         0.7008867
 4740.000         0.7008129
 4741.000         0.7007487
 4742.000         0.7006948
 4743.000         0.7006518
 4744.000         0.7006204
 4745.000         0.7006013
 4746.000         0.7005953
 4747.000         0.7006029
 4748.000         0.7006250
 4749.000         0.7006625
 4750.000         0.7007161
 4751.000         0.7007865
 4752.000         0.7008720
 4753.000         0.7009709
 4754.000         0.7010812
 4755.000         0.7012014
 4756.000         0.7013297
 4757.000         0.7014645
 4758.000         0.7016045
 4759.000         0.7017481
 4760.000         0.7018941
 4761.000         0.7020408
 4762.000         0.7021865
 4763.000         0.7023288
 4764.000         0.7024657
 4765.000         0.7025951
 4766.000         0.7027148
 4767.000         0.7028226
 4768.000         0.7029161
 4769.000         0.7029929
 4770.000         0.7030506
 4771.000         0.7030873
 4772.000         0.7031052
 4773.000         0.7031069
 4774.000         0.7030952
 4775.000         0.7030727
 4776.000         0.7030419
 4777.000         0.7030053
 4778.000         0.7029655
 4779.000         0.7029249
 4780.000         0.7028861
 4781.000         0.7028510
 4782.000         0.7028187
 4783.000         0.7027876
 4784.000         0.7027564
 4785.000         0.7027235
 4786.000         0.7026876
 4787.000         0.7026471
 4788.000         0.7026005
 4789.000         0.7025463
 4790.000         0.7024829
 4791.000         0.7024096
 4792.000         0.7023304
 4793.000         0.7022501
 4794.000         0.7021736
 4795.000         0.7021058
 4796.000         0.7020517
 4797.000         0.7020161
 4798.000         0.7020042
 4799.000         0.7020212
 4800.000         0.7020726
 4801.000         0.7021619
 4802.000         0.7022842
 4803.000         0.7024322
 4804.000         0.7025994
 4805.000         0.7027790
 4806.000         0.7029643
 4807.000         0.7031488
 4808.000         0.7033258
 4809.000         0.7034886
 4810.000         0.7036303
 4811.000         0.7037455
 4812.000         0.7038347
 4813.000         0.7039003
 4814.000         0.7039440
 4815.000         0.7039678
 4816.000         0.7039733
 4817.000         0.7039620
 4818.000         0.7039355
 4819.000         0.7038951
 4820.000         0.7038423
 4821.000         0.7037786
 4822.000         0.7037051
 4823.000         0.7036232
 4824.000         0.7035343
 4825.000         0.7034397
 4826.000         0.7033407
 4827.000         0.7032390
 4828.000         0.7031360
 4829.000         0.7030333
 4830.000         0.7029325
 4831.000         0.7028350
 4832.000         0.7027412
 4833.000         0.7026508
 4834.000         0.7025641
 4835.000         0.7024810
 4836.000         0.7024017
 4837.000         0.7023264
 4838.000         0.7022553
 4839.000         0.7021886
 4840.000         0.7021266
 4841.000         0.7020692
 4842.000         0.7020153
 4843.000         0.7019635
 4844.000         0.7019126
 4845.000         0.7018610
 4846.000         0.7018073
 4847.000         0.7017500
 4848.000         0.7016874
 4849.000         0.7016177
 4850.000         0.7015393
 4851.000         0.7014511
 4852.000         0.7013561
 4853.000         0.7012582
 4854.000         0.7011613
 4855.000         0.7010692
 4856.000         0.7009856
 4857.000         0.7009145
 4858.000         0.7008597
 4859.000         0.7008253
 4860.000         0.7008155
 4861.000         0.7008334
 4862.000         0.7008765
 4863.000         0.7009411
 4864.000         0.7010237
 4865.000         0.7011210
 4866.000         0.7012298
 4867.000         0.7013468
 4868.000         0.7014689
 4869.000         0.7015929
 4870.000         0.7017157
 4871.000         0.7018348
 4872.000         0.7019508
 4873.000         0.7020651
 4874.000         0.7021790
 4875.000         0.7022937
 4876.000         0.7024102
 4877.000         0.7025298
 4878.000         0.7026535
 4879.000         0.7027823
 4880.000         0.7029172
 4881.000         0.7030587
 4882.000         0.7032050
 4883.000         0.7033537
 4884.000         0.7035023
 4885.000         0.7036485
 4886.000         0.7037899
 4887.000         0.7039238
 4888.000         0.7040478
 4889.000         0.7041593
 4890.000         0.7042556
 4891.000         0.7043344
 4892.000         0.7043942
 4893.000         0.7044342
 4894.000         0.7044532
 4895.000         0.7044499
 4896.000         0.7044234
 4897.000         0.7043722
 4898.000         0.7042953
 4899.000         0.7041912
 4900.000         0.7040588
 4901.000         0.7038976
 4902.000         0.7037108
 4903.000         0.7035026
 4904.000         0.7032769
 4905.000         0.7030379
 4906.000         0.7027898
 4907.000         0.7025368
 4908.000         0.7022832
 4909.000         0.7020333
 4910.000         0.7017917
 4911.000         0.7015621
 4912.000         0.7013456
 4913.000         0.7011425
 4914.000         0.7009532
 4915.000         0.7007783
 4916.000         0.7006183
 4917.000         0.7004737
 4918.000         0.7003449
 4919.000         0.7002323
 4920.000         0.7001362
 4921.000         0.7000568
 4922.000         0.6999939
 4923.000         0.6999475
 4924.000         0.6999172
 4925.000         0.6999028
 4926.000         0.6999038
 4927.000         0.6999199
 4928.000         0.6999508
 4929.000         0.6999963
 4930.000         0.7000563
 4931.000         0.7001297
 4932.000         0.7002112
 4933.000         0.7002944
 4934.000         0.7003732
 4935.000         0.7004415
 4936.000         0.7004933
 4937.000         0.7005226
 4938.000         0.7005234
 4939.000         0.7004898
 4940.000         0.7004157
 4941.000         0.7002968
 4942.000         0.7001352
 4943.000         0.6999346
 4944.000         0.6996988
 4945.000         0.6994312
 4946.000         0.6991354
 4947.000         0.6988147
 4948.000         0.6984723
 4949.000         0.6981114
 4950.000         0.6977347
 4951.000         0.6973463
 4952.000         0.6969543
 4953.000         0.6965679
 4954.000         0.6961963
 4955.000         0.6958484
 4956.000         0.6955333
 4957.000         0.6952598
 4958.000         0.6950370
 4959.000         0.6948741
 4960.000         0.6947803
 4961.000         0.6947620
 4962.000         0.6948142
 4963.000         0.6949290
 4964.000         0.6950989
 4965.000         0.6953163
 4966.000         0.6955740
 4967.000         0.6958647
 4968.000         0.6961814
 4969.000         0.6965171
 4970.000         0.6968648
 4971.000         0.6972177
 4972.000         0.6975686
 4973.000         0.6979105
 4974.000         0.6982362
 4975.000         0.6985386
 4976.000         0.6988106
 4977.000         0.6990449
 4978.000         0.6992343
 4979.000         0.6993714
 4980.000         0.6994487
 4981.000         0.6994609
 4982.000         0.6994113
 4983.000         0.6993057
 4984.000         0.6991493
 4985.000         0.6989475
 4986.000         0.6987055
 4987.000         0.6984286
 4988.000         0.6981217
 4989.000         0.6977901
 4990.000         0.6974387
 4991.000         0.6970723
 4992.000         0.6966948
 4993.000         0.6963098
 4994.000         0.6959210
 4995.000         0.6955321
 4996.000         0.6951467
 4997.000         0.6947685
 4998.000         0.6944013
 4999.000         0.6940489
 5000.000         0.6937151
 5001.000         0.6934032
 5002.000         0.6931140
 5003.000         0.6928478
 5004.000         0.6926051
 5005.000         0.6923861
 5006.000         0.6921914
 5007.000         0.6920215
 5008.000         0.6918769
 5009.000         0.6917582
 5010.000         0.6916660
 5011.000         0.6916012
 5012.000         0.6915645
 5013.000         0.6915570
 5014.000         0.6915797
 5015.000         0.6916336
 5016.000         0.6917201
 5017.000         0.6918401
 5018.000         0.6919951
 5019.000         0.6921864
 5020.000         0.6924153
 5021.000         0.6926820
 5022.000         0.6929818
 5023.000         0.6933085
 5024.000         0.6936560
 5025.000         0.6940185
 5026.000         0.6943898
 5027.000         0.6947640
 5028.000         0.6951351
 5029.000         0.6954971
 5030.000         0.6958437
 5031.000         0.6961692
 5032.000         0.6964685
 5033.000         0.6967371
 5034.000         0.6969702
 5035.000         0.6971627
 5036.000         0.6973099
 5037.000         0.6974065
 5038.000         0.6974475
 5039.000         0.6974275
 5040.000         0.6973413
 5041.000         0.6971853
 5042.000         0.6969645
 5043.000         0.6966857
 5044.000         0.6963556
 5045.000         0.6959809
 5046.000         0.6955682
 5047.000         0.6951241
 5048.000         0.6946548
 5049.000         0.6941669
 5050.000         0.6936666
 5051.000         0.6931605
 5052.000         0.6926558
 5053.000         0.6921603
 5054.000         0.6916813
 5055.000         0.6912264
 5056.000         0.6908033
 5057.000         0.6904197
 5058.000         0.6900833
 5059.000         0.6898020
 5060.000         0.6895837
 5061.000         0.6894342
 5062.000         0.6893494
 5063.000         0.6893227
 5064.000         0.6893479
 5065.000         0.6894187
 5066.000         0.6895291
 5067.000         0.6896733
 5068.000         0.6898452
 5069.000         0.6900392
 5070.000         0.6902495
 5071.000         0.6904705
 5072.000         0.6906957
 5073.000         0.6909190
 5074.000         0.6911337
 5075.000         0.6913337
 5076.000         0.6915124
 5077.000         0.6916635
 5078.000         0.6917806
 5079.000         0.6918570
 5080.000         0.6918861
 5081.000         0.6918632
 5082.000         0.6917904
 5083.000         0.6916719
 5084.000         0.6915115
 5085.000         0.6913131
 5086.000         0.6910803
 5087.000         0.6908169
 5088.000         0.6905263
 5089.000         0.6902121
 5090.000         0.6898775
 5091.000         0.6895261
 5092.000         0.6891626
 5093.000         0.6887920
 5094.000         0.6884192
 5095.000         0.6880490
 5096.000         0.6876863
 5097.000         0.6873359
 5098.000         0.6870026
 5099.000         0.6866913
 5100.000         0.6864069
 5101.000         0.6861531
 5102.000         0.6859286
 5103.000         0.6857310
 5104.000         0.6855580
 5105.000         0.6854071
 5106.000         0.6852763
 5107.000         0.6851633
 5108.000         0.6850658
 5109.000         0.6849819
 5110.000         0.6849094
 5111.000         0.6848461
 5112.000         0.6847901
 5113.000         0.6847393
 5114.000         0.6846915
 5115.000         0.6846447
 5116.000         0.6845968
 5117.000         0.6845457
 5118.000         0.6844894
 5119.000         0.6844258
 5120.000         0.6843527
 5121.000         0.6842687
 5122.000         0.6841749
 5123.000         0.6840731
 5124.000         0.6839650
 5125.000         0.6838523
 5126.000         0.6837367
 5127.000         0.6836200
 5128.000         0.6835039
 5129.000         0.6833902
 5130.000         0.6832805
 5131.000         0.6831766
 5132.000         0.6830800
 5133.000         0.6829920
 5134.000         0.6829143
 5135.000         0.6828483
 5136.000         0.6827956
 5137.000         0.6827579
 5138.000         0.6827367
 5139.000         0.6827338
 5140.000         0.6827510
 5141.000         0.6827895
 5142.000         0.6828474
 5143.000         0.6829222
 5144.000         0.6830114
 5145.000         0.6831128
 5146.000         0.6832239
 5147.000         0.6833423
 5148.000         0.6834657
 5149.000         0.6835918
 5150.000         0.6837182
 5151.000         0.6838427
 5152.000         0.6839641
 5153.000         0.6840814
 5154.000         0.6841934
 5155.000         0.6842992
 5156.000         0.6843976
 5157.000         0.6844873
 5158.000         0.6845674
 5159.000         0.6846364
 5160.000         0.6846932
 5161.000         0.6847370
 5162.000         0.6847687
 5163.000         0.6847896
 5164.000         0.6848009
 5165.000         0.6848040
 5166.000         0.6848001
 5167.000         0.6847905
 5168.000         0.6847765
 5169.000         0.6847593
 5170.000         0.6847401
 5171.000         0.6847202
 5172.000         0.6847006
 5173.000         0.6846820
 5174.000         0.6846654
 5175.000         0.6846516
 5176.000         0.6846417
 5177.000         0.6846366
 5178.000         0.6846372
 5179.000         0.6846445
 5180.000         0.6846596
 5181.000         0.6846827
 5182.000         0.6847122
 5183.000         0.6847454
 5184.000         0.6847799
 5185.000         0.6848133
 5186.000         0.6848429
 5187.000         0.6848665
 5188.000         0.6848813
 5189.000         0.6848849
 5190.000         0.6848746
 5191.000         0.6848480
 5192.000         0.6848034
 5193.000         0.6847392
 5194.000         0.6846538
 5195.000         0.6845455
 5196.000         0.6844127
 5197.000         0.6842534
 5198.000         0.6840658
 5199.000         0.6838481
 5200.000         0.6835982
 5201.000         0.6833152
 5202.000         0.6830022
 5203.000         0.6826635
 5204.000         0.6823032
 5205.000         0.6819255
 5206.000         0.6815345
 5207.000         0.6811342
 5208.000         0.6807287
 5209.000         0.6803219
 5210.000         0.6799180
 5211.000         0.6795210
 5212.000         0.6791357
 5213.000         0.6787670
 5214.000         0.6784200
 5215.000         0.6780995
 5216.000         0.6778107
 5217.000         0.6775586
 5218.000         0.6773485
 5219.000         0.6771855
 5220.000         0.6770752
 5221.000         0.6770210
 5222.000         0.6770197
 5223.000         0.6770659
 5224.000         0.6771545
 5225.000         0.6772807
 5226.000         0.6774394
 5227.000         0.6776260
 5228.000         0.6778356
 5229.000         0.6780637
 5230.000         0.6783055
 5231.000         0.6785564
 5232.000         0.6788119
 5233.000         0.6790671
 5234.000         0.6793174
 5235.000         0.6795582
 5236.000         0.6797846
 5237.000         0.6799920
 5238.000         0.6801756
 5239.000         0.6803306
 5240.000         0.6804522
 5241.000         0.6805367
 5242.000         0.6805852
 5243.000         0.6806000
 5244.000         0.6805833
 5245.000         0.6805373
 5246.000         0.6804640
 5247.000         0.6803656
 5248.000         0.6802440
 5249.000         0.6801012
 5250.000         0.6799390
 5251.000         0.6797593
 5252.000         0.6795635
 5253.000         0.6793529
 5254.000         0.6791289
 5255.000         0.6788926
 5256.000         0.6786454
 5257.000         0.6783884
 5258.000         0.6781229
 5259.000         0.6778498
 5260.000         0.6775704
 5261.000         0.6772859
 5262.000         0.6769985
 5263.000         0.6767104
 5264.000         0.6764238
 5265.000         0.6761412
 5266.000         0.6758646
 5267.000         0.6755963
 5268.000         0.6753387
 5269.000         0.6750940
 5270.000         0.6748645
 5271.000         0.6746525
 5272.000         0.6744600
 5273.000         0.6742890
 5274.000         0.6741417
 5275.000         0.6740201
 5276.000         0.6739264
 5277.000         0.6738629
 5278.000         0.6738318
 5279.000         0.6738356
 5280.000         0.6738767
 5281.000         0.6739565
 5282.000         0.6740722
 5283.000         0.6742202
 5284.000         0.6743969
 5285.000         0.6745985
 5286.000         0.6748216
 5287.000         0.6750627
 5288.000         0.6753184
 5289.000         0.6755852
 5290.000         0.6758599
 5291.000         0.6761390
 5292.000         0.6764188
 5293.000         0.6766953
 5294.000         0.6769646
 5295.000         0.6772229
 5296.000         0.6774663
 5297.000         0.6776909
 5298.000         0.6778927
 5299.000         0.6780677
 5300.000         0.6782119
 5301.000         0.6783225
 5302.000         0.6784009
 5303.000         0.6784499
 5304.000         0.6784723
 5305.000         0.6784707
 5306.000         0.6784477
 5307.000         0.6784057
 5308.000         0.6783475
 5309.000         0.6782755
 5310.000         0.6781923
 5311.000         0.6781001
 5312.000         0.6780005
 5313.000         0.6778946
 5314.000         0.6777836
 5315.000         0.6776689
 5316.000         0.6775516
 5317.000         0.6774330
 5318.000         0.6773144
 5319.000         0.6771969
 5320.000         0.6770818
 5321.000         0.6769700
 5322.000         0.6768610
 5323.000         0.6767541
 5324.000         0.6766484
 5325.000         0.6765431
 5326.000         0.6764375
 5327.000         0.6763306
 5328.000         0.6762216
 5329.000         0.6761096
 5330.000         0.6759938
 5331.000         0.6758734
 5332.000         0.6757477
 5333.000         0.6756163
 5334.000         0.6754785
 5335.000         0.6753339
 5336.000         0.6751820
 5337.000         0.6750221
 5338.000         0.6748538
 5339.000         0.6746766
 5340.000         0.6744900
 5341.000         0.6742939
 5342.000         0.6740892
 5343.000         0.6738776
 5344.000         0.6736605
 5345.000         0.6734392
 5346.000         0.6732154
 5347.000         0.6729905
 5348.000         0.6727659
 5349.000         0.6725431
 5350.000         0.6723236
 5351.000         0.6721092
 5352.000         0.6719034
 5353.000         0.6717104
 5354.000         0.6715343
 5355.000         0.6713790
 5356.000         0.6712487
 5357.000         0.6711474
 5358.000         0.6710795
 5359.000         0.6710491
 5360.000         0.6710605
 5361.000         0.6711169
 5362.000         0.6712154
 5363.000         0.6713516
 5364.000         0.6715217
 5365.000         0.6717215
 5366.000         0.6719471
 5367.000         0.6721946
 5368.000         0.6724603
 5369.000         0.6727404
 5370.000         0.6730311
 5371.000         0.6733289
 5372.000         0.6736304
 5373.000         0.6739321
 5374.000         0.6742309
 5375.000         0.6745232
 5376.000         0.6748059
 5377.000         0.6750755
 5378.000         0.6753286
 5379.000         0.6755617
 5380.000         0.6757714
 5381.000         0.6759551
 5382.000         0.6761139
 5383.000         0.6762499
 5384.000         0.6763651
 5385.000         0.6764614
 5386.000         0.6765408
 5387.000         0.6766052
 5388.000         0.6766565
 5389.000         0.6766967
 5390.000         0.6767276
 5391.000         0.6767509
 5392.000         0.6767666
 5393.000         0.6767746
 5394.000         0.6767744
 5395.000         0.6767660
 5396.000         0.6767490
 5397.000         0.6767232
 5398.000         0.6766882
 5399.000         0.6766436
 5400.000         0.6765892
 5401.000         0.6765246
 5402.000         0.6764503
 5403.000         0.6763673
 5404.000         0.6762760
 5405.000         0.6761771
 5406.000         0.6760711
 5407.000         0.6759586
 5408.000         0.6758398
 5409.000         0.6757152
 5410.000         0.6755850
 5411.000         0.6754497
 5412.000         0.6753108
 5413.000         0.6751700
 5414.000         0.6750291
 5415.000         0.6748896
 5416.000         0.6747533
 5417.000         0.6746217
 5418.000         0.6744967
 5419.000         0.6743797
 5420.000         0.6742727
 5421.000         0.6741770
 5422.000         0.6740924
 5423.000         0.6740184
 5424.000         0.6739545
 5425.000         0.6739004
 5426.000         0.6738556
 5427.000         0.6738199
 5428.000         0.6737931
 5429.000         0.6737749
 5430.000         0.6737652
 5431.000         0.6737637
 5432.000         0.6737689
 5433.000         0.6737794
 5434.000         0.6737934
 5435.000         0.6738093
 5436.000         0.6738257
 5437.000         0.6738408
 5438.000         0.6738530
 5439.000         0.6738605
 5440.000         0.6738615
 5441.000         0.6738548
 5442.000         0.6738419
 5443.000         0.6738250
 5444.000         0.6738059
 5445.000         0.6737867
 5446.000         0.6737693
 5447.000         0.6737556
 5448.000         0.6737476
 5449.000         0.6737472
 5450.000         0.6737564
 5451.000         0.6737767
 5452.000         0.6738083
 5453.000         0.6738508
 5454.000         0.6739037
 5455.000         0.6739671
 5456.000         0.6740406
 5457.000         0.6741241
 5458.000         0.6742178
 5459.000         0.6743214
 5460.000         0.6744352
 5461.000         0.6745588
 5462.000         0.6746910
 5463.000         0.6748301
 5464.000         0.6749746
 5465.000         0.6751228
 5466.000         0.6752732
 5467.000         0.6754242
 5468.000         0.6755744
 5469.000         0.6757222
 5470.000         0.6758662
 5471.000         0.6760046
 5472.000         0.6761356
 5473.000         0.6762574
 5474.000         0.6763679
 5475.000         0.6764652
 5476.000         0.6765471
 5477.000         0.6766115
 5478.000         0.6766562
 5479.000         0.6766788
 5480.000         0.6766770
 5481.000         0.6766493
 5482.000         0.6765984
 5483.000         0.6765282
 5484.000         0.6764423
 5485.000         0.6763445
 5486.000         0.6762383
 5487.000         0.6761273
 5488.000         0.6760153
 5489.000         0.6759057
 5490.000         0.6758024
 5491.000         0.6757085
 5492.000         0.6756238
 5493.000         0.6755479
 5494.000         0.6754801
 5495.000         0.6754200
 5496.000         0.6753671
 5497.000         0.6753211
 5498.000         0.6752817
 5499.000         0.6752484
 5500.000         0.6752210
 5501.000         0.6751992
 5502.000         0.6751825
 5503.000         0.6751706
 5504.000         0.6751632
 5505.000         0.6751598
 5506.000         0.6751600
 5507.000         0.6751634
 5508.000         0.6751694
 5509.000         0.6751777
 5510.000         0.6751879
 5511.000         0.6751992
 5512.000         0.6752112
 5513.000         0.6752230
 5514.000         0.6752339
 5515.000         0.6752431
 5516.000         0.6752499
 5517.000         0.6752535
 5518.000         0.6752531
 5519.000         0.6752479
 5520.000         0.6752372
 5521.000         0.6752202
 5522.000         0.6751975
 5523.000         0.6751694
 5524.000         0.6751367
 5525.000         0.6750999
 5526.000         0.6750594
 5527.000         0.6750159
 5528.000         0.6749698
 5529.000         0.6749216
 5530.000         0.6748720
 5531.000         0.6748213
 5532.000         0.6747696
 5533.000         0.6747170
 5534.000         0.6746635
 5535.000         0.6746091
 5536.000         0.6745539
 5537.000         0.6744977
 5538.000         0.6744406
 5539.000         0.6743826
 5540.000         0.6743235
 5541.000         0.6742634
 5542.000         0.6742031
 5543.000         0.6741433
 5544.000         0.6740850
 5545.000         0.6740289
 5546.000         0.6739758
 5547.000         0.6739267
 5548.000         0.6738823
 5549.000         0.6738436
 5550.000         0.6738115
 5551.000         0.6737866
 5552.000         0.6737682
 5553.000         0.6737552
 5554.000         0.6737466
 5555.000         0.6737414
 5556.000         0.6737385
 5557.000         0.6737372
 5558.000         0.6737363
 5559.000         0.6737349
 5560.000         0.6737322
 5561.000         0.6737273
 5562.000         0.6737204
 5563.000         0.6737118
 5564.000         0.6737020
 5565.000         0.6736913
 5566.000         0.6736799
 5567.000         0.6736681
 5568.000         0.6736563
 5569.000         0.6736447
 5570.000         0.6736335
 5571.000         0.6736232
 5572.000         0.6736150
 5573.000         0.6736103
 5574.000         0.6736106
 5575.000         0.6736174
 5576.000         0.6736322
 5577.000         0.6736566
 5578.000         0.6736922
 5579.000         0.6737408
 5580.000         0.6738041
 5581.000         0.6738833
 5582.000         0.6739761
 5583.000         0.6740796
 5584.000         0.6741910
 5585.000         0.6743073
 5586.000         0.6744259
 5587.000         0.6745438
 5588.000         0.6746584
 5589.000         0.6747667
 5590.000         0.6748657
 5591.000         0.6749532
 5592.000         0.6750292
 5593.000         0.6750946
 5594.000         0.6751500
 5595.000         0.6751960
 5596.000         0.6752330
 5597.000         0.6752614
 5598.000         0.6752816
 5599.000         0.6752938
 5600.000         0.6752982
 5601.000         0.6752954
 5602.000         0.6752867
 5603.000         0.6752741
 5604.000         0.6752594
 5605.000         0.6752444
 5606.000         0.6752308
 5607.000         0.6752207
 5608.000         0.6752158
 5609.000         0.6752182
 5610.000         0.6752301
 5611.000         0.6752528
 5612.000         0.6752850
 5613.000         0.6753248
 5614.000         0.6753703
 5615.000         0.6754196
 5616.000         0.6754709
 5617.000         0.6755227
 5618.000         0.6755730
 5619.000         0.6756203
 5620.000         0.6756628
 5621.000         0.6756992
 5622.000         0.6757300
 5623.000         0.6757560
 5624.000         0.6757781
 5625.000         0.6757971
 5626.000         0.6758138
 5627.000         0.6758290
 5628.000         0.6758433
 5629.000         0.6758576
 5630.000         0.6758725
 5631.000         0.6758887
 5632.000         0.6759067
 5633.000         0.6759269
 5634.000         0.6759496
 5635.000         0.6759752
 5636.000         0.6760043
 5637.000         0.6760371
 5638.000         0.6760742
 5639.000         0.6761160
 5640.000         0.6761630
 5641.000         0.6762154
 5642.000         0.6762725
 5643.000         0.6763334
 5644.000         0.6763970
 5645.000         0.6764625
 5646.000         0.6765287
 5647.000         0.6765948
 5648.000         0.6766598
 5649.000         0.6767226
 5650.000         0.6767822
 5651.000         0.6768378
 5652.000         0.6768894
 5653.000         0.6769376
 5654.000         0.6769825
 5655.000         0.6770244
 5656.000         0.6770637
 5657.000         0.6771006
 5658.000         0.6771353
 5659.000         0.6771681
 5660.000         0.6771992
 5661.000         0.6772289
 5662.000         0.6772571
 5663.000         0.6772837
 5664.000         0.6773085
 5665.000         0.6773317
 5666.000         0.6773530
 5667.000         0.6773723
 5668.000         0.6773897
 5669.000         0.6774050
 5670.000         0.6774181
 5671.000         0.6774290
 5672.000         0.6774381
 5673.000         0.6774461
 5674.000         0.6774533
 5675.000         0.6774603
 5676.000         0.6774677
 5677.000         0.6774759
 5678.000         0.6774856
 5679.000         0.6774971
 5680.000         0.6775111
 5681.000         0.6775281
 5682.000         0.6775485
 5683.000         0.6775724
 5684.000         0.6776003
 5685.000         0.6776324
 5686.000         0.6776693
 5687.000         0.6777113
 5688.000         0.6777588
 5689.000         0.6778126
 5690.000         0.6778730
 5691.000         0.6779404
 5692.000         0.6780135
 5693.000         0.6780904
 5694.000         0.6781696
 5695.000         0.6782492
 5696.000         0.6783278
 5697.000         0.6784036
 5698.000         0.6784750
 5699.000         0.6785401
 5700.000         0.6785972
 5701.000         0.6786451
 5702.000         0.6786844
 5703.000         0.6787166
 5704.000         0.6787429
 5705.000         0.6787645
 5706.000         0.6787825
 5707.000         0.6787981
 5708.000         0.6788124
 5709.000         0.6788264
 5710.000         0.6788412
 5711.000         0.6788579
 5712.000         0.6788766
 5713.000         0.6788975
 5714.000         0.6789208
 5715.000         0.6789466
 5716.000         0.6789751
 5717.000         0.6790066
 5718.000         0.6790414
 5719.000         0.6790798
 5720.000         0.6791221
 5721.000         0.6791684
 5722.000         0.6792177
 5723.000         0.6792685
 5724.000         0.6793198
 5725.000         0.6793700
 5726.000         0.6794180
 5727.000         0.6794625
 5728.000         0.6795021
 5729.000         0.6795354
 5730.000         0.6795612
 5731.000         0.6795781
 5732.000         0.6795861
 5733.000         0.6795854
 5734.000         0.6795759
 5735.000         0.6795577
 5736.000         0.6795306
 5737.000         0.6794947
 5738.000         0.6794496
 5739.000         0.6793952
 5740.000         0.6793313
 5741.000         0.6792577
 5742.000         0.6791752
 5743.000         0.6790848
 5744.000         0.6789876
 5745.000         0.6788843
 5746.000         0.6787759
 5747.000         0.6786632
 5748.000         0.6785472
 5749.000         0.6784287
 5750.000         0.6783086
 5751.000         0.6781876
 5752.000         0.6780668
 5753.000         0.6779472
 5754.000         0.6778299
 5755.000         0.6777158
 5756.000         0.6776061
 5757.000         0.6775020
 5758.000         0.6774046
 5759.000         0.6773153
 5760.000         0.6772354
 5761.000         0.6771659
 5762.000         0.6771062
 5763.000         0.6770555
 5764.000         0.6770129
 5765.000         0.6769777
 5766.000         0.6769491
 5767.000         0.6769265
 5768.000         0.6769092
 5769.000         0.6768966
 5770.000         0.6768881
 5771.000         0.6768832
 5772.000         0.6768820
 5773.000         0.6768848
 5774.000         0.6768920
 5775.000         0.6769038
 5776.000         0.6769203
 5777.000         0.6769418
 5778.000         0.6769684
 5779.000         0.6770003
 5780.000         0.6770375
 5781.000         0.6770800
 5782.000         0.6771283
 5783.000         0.6771825
 5784.000         0.6772429
 5785.000         0.6773099
 5786.000         0.6773836
 5787.000         0.6774644
 5788.000         0.6775526
 5789.000         0.6776484
 5790.000         0.6777524
 5791.000         0.6778644
 5792.000         0.6779824
 5793.000         0.6781037
 5794.000         0.6782260
 5795.000         0.6783467
 5796.000         0.6784634
 5797.000         0.6785737
 5798.000         0.6786751
 5799.000         0.6787651
 5800.000         0.6788413
 5801.000         0.6789018
 5802.000         0.6789478
 5803.000         0.6789812
 5804.000         0.6790037
 5805.000         0.6790171
 5806.000         0.6790230
 5807.000         0.6790234
 5808.000         0.6790198
 5809.000         0.6790139
 5810.000         0.6790075
 5811.000         0.6790020
 5812.000         0.6789981
 5813.000         0.6789960
 5814.000         0.6789960
 5815.000         0.6789987
 5816.000         0.6790042
 5817.000         0.6790129
 5818.000         0.6790253
 5819.000         0.6790416
 5820.000         0.6790622
 5821.000         0.6790875
 5822.000         0.6791179
 5823.000         0.6791541
 5824.000         0.6791968
 5825.000         0.6792464
 5826.000         0.6793038
 5827.000         0.6793695
 5828.000         0.6794443
 5829.000         0.6795290
 5830.000         0.6796246
 5831.000         0.6797313
 5832.000         0.6798459
 5833.000         0.6799646
 5834.000         0.6800836
 5835.000         0.6801992
 5836.000         0.6803076
 5837.000         0.6804051
 5838.000         0.6804877
 5839.000         0.6805517
 5840.000         0.6805928
 5841.000         0.6806085
 5842.000         0.6806013
 5843.000         0.6805754
 5844.000         0.6805348
 5845.000         0.6804833
 5846.000         0.6804246
 5847.000         0.6803624
 5848.000         0.6803006
 5849.000         0.6802426
 5850.000         0.6801924
 5851.000         0.6801531
 5852.000         0.6801259
 5853.000         0.6801115
 5854.000         0.6801107
 5855.000         0.6801243
 5856.000         0.6801533
 5857.000         0.6801986
 5858.000         0.6802612
 5859.000         0.6803422
 5860.000         0.6804428
 5861.000         0.6805636
 5862.000         0.6807037
 5863.000         0.6808615
 5864.000         0.6810358
 5865.000         0.6812250
 5866.000         0.6814280
 5867.000         0.6816434
 5868.000         0.6818701
 5869.000         0.6821068
 5870.000         0.6823523
 5871.000         0.6826054
 5872.000         0.6828644
 5873.000         0.6831277
 5874.000         0.6833934
 5875.000         0.6836598
 5876.000         0.6839252
 5877.000         0.6841880
 5878.000         0.6844463
 5879.000         0.6846985
 5880.000         0.6849428
 5881.000         0.6851776
 5882.000         0.6854015
 5883.000         0.6856131
 5884.000         0.6858112
 5885.000         0.6859943
 5886.000         0.6861610
 5887.000         0.6863097
 5888.000         0.6864389
 5889.000         0.6865469
 5890.000         0.6866319
 5891.000         0.6866926
 5892.000         0.6867289
 5893.000         0.6867413
 5894.000         0.6867302
 5895.000         0.6866957
 5896.000         0.6866382
 5897.000         0.6865577
 5898.000         0.6864545
 5899.000         0.6863286
 5900.000         0.6861803
 5901.000         0.6860099
 5902.000         0.6858191
 5903.000         0.6856100
 5904.000         0.6853845
 5905.000         0.6851447
 5906.000         0.6848927
 5907.000         0.6846303
 5908.000         0.6843595
 5909.000         0.6840823
 5910.000         0.6838005
 5911.000         0.6835166
 5912.000         0.6832351
 5913.000         0.6829614
 5914.000         0.6827005
 5915.000         0.6824577
 5916.000         0.6822380
 5917.000         0.6820468
 5918.000         0.6818892
 5919.000         0.6817705
 5920.000         0.6816961
 5921.000         0.6816699
 5922.000         0.6816898
 5923.000         0.6817522
 5924.000         0.6818536
 5925.000         0.6819905
 5926.000         0.6821598
 5927.000         0.6823584
 5928.000         0.6825831
 5929.000         0.6828311
 5930.000         0.6830995
 5931.000         0.6833850
 5932.000         0.6836821
 5933.000         0.6839846
 5934.000         0.6842865
 5935.000         0.6845817
 5936.000         0.6848639
 5937.000         0.6851272
 5938.000         0.6853651
 5939.000         0.6855714
 5940.000         0.6857393
 5941.000         0.6858644
 5942.000         0.6859512
 5943.000         0.6860062
 5944.000         0.6860358
 5945.000         0.6860464
 5946.000         0.6860441
 5947.000         0.6860353
 5948.000         0.6860262
 5949.000         0.6860231
 5950.000         0.6860325
 5951.000         0.6860595
 5952.000         0.6861034
 5953.000         0.6861621
 5954.000         0.6862338
 5955.000         0.6863166
 5956.000         0.6864087
 5957.000         0.6865084
 5958.000         0.6866141
 5959.000         0.6867238
 5960.000         0.6868358
 5961.000         0.6869485
 5962.000         0.6870627
 5963.000         0.6871795
 5964.000         0.6872998
 5965.000         0.6874245
 5966.000         0.6875547
 5967.000         0.6876910
 5968.000         0.6878344
 5969.000         0.6879857
 5970.000         0.6881460
 5971.000         0.6883157
 5972.000         0.6884925
 5973.000         0.6886739
 5974.000         0.6888574
 5975.000         0.6890405
 5976.000         0.6892207
 5977.000         0.6893957
 5978.000         0.6895632
 5979.000         0.6897208
 5980.000         0.6898664
 5981.000         0.6899980
 5982.000         0.6901153
 5983.000         0.6902179
 5984.000         0.6903059
 5985.000         0.6903789
 5986.000         0.6904370
 5987.000         0.6904797
 5988.000         0.6905069
 5989.000         0.6905181
 5990.000         0.6905131
 5991.000         0.6904917
 5992.000         0.6904559
 5993.000         0.6904079
 5994.000         0.6903499
 5995.000         0.6902841
 5996.000         0.6902126
 5997.000         0.6901374
 5998.000         0.6900605
 5999.000         0.6899838
 6000.000         0.6899094
 6001.000         0.6898391
 6002.000         0.6897741
 6003.000         0.6897158
 6004.000         0.6896653
 6005.000         0.6896240
 6006.000         0.6895932
 6007.000         0.6895742
 6008.000         0.6895685
 6009.000         0.6895775
 6010.000         0.6896028
 6011.000         0.6896458
 6012.000         0.6897068
 6013.000         0.6897857
 6014.000         0.6898827
 6015.000         0.6899980
 6016.000         0.6901320
 6017.000         0.6902849
 6018.000         0.6904572
 6019.000         0.6906495
 6020.000         0.6908623
 6021.000         0.6910951
 6022.000         0.6913431
 6023.000         0.6916001
 6024.000         0.6918602
 6025.000         0.6921173
 6026.000         0.6923653
 6027.000         0.6925978
 6028.000         0.6928086
 6029.000         0.6929908
 6030.000         0.6931378
 6031.000         0.6932439
 6032.000         0.6933099
 6033.000         0.6933378
 6034.000         0.6933295
 6035.000         0.6932865
 6036.000         0.6932104
 6037.000         0.6931026
 6038.000         0.6929645
 6039.000         0.6927975
 6040.000         0.6926029
 6041.000         0.6923824
 6042.000         0.6921375
 6043.000         0.6918699
 6044.000         0.6915815
 6045.000         0.6912742
 6046.000         0.6909497
 6047.000         0.6906101
 6048.000         0.6902573
 6049.000         0.6898932
 6050.000         0.6895197
 6051.000         0.6891393
 6052.000         0.6887581
 6053.000         0.6883826
 6054.000         0.6880195
 6055.000         0.6876754
 6056.000         0.6873570
 6057.000         0.6870709
 6058.000         0.6868241
 6059.000         0.6866235
 6060.000         0.6864762
 6061.000         0.6863872
 6062.000         0.6863526
 6063.000         0.6863665
 6064.000         0.6864231
 6065.000         0.6865169
 6066.000         0.6866423
 6067.000         0.6867938
 6068.000         0.6869662
 6069.000         0.6871540
 6070.000         0.6873519
 6071.000         0.6875550
 6072.000         0.6877604
 6073.000         0.6879655
 6074.000         0.6881676
 6075.000         0.6883641
 6076.000         0.6885524
 6077.000         0.6887298
 6078.000         0.6888936
 6079.000         0.6890411
 6080.000         0.6891695
 6081.000         0.6892768
 6082.000         0.6893639
 6083.000         0.6894322
 6084.000         0.6894833
 6085.000         0.6895187
 6086.000         0.6895397
 6087.000         0.6895477
 6088.000         0.6895442
 6089.000         0.6895302
 6090.000         0.6895071
 6091.000         0.6894765
 6092.000         0.6894423
 6093.000         0.6894086
 6094.000         0.6893797
 6095.000         0.6893599
 6096.000         0.6893533
 6097.000         0.6893643
 6098.000         0.6893970
 6099.000         0.6894559
 6100.000         0.6895455
 6101.000         0.6896687
 6102.000         0.6898232
 6103.000         0.6900051
 6104.000         0.6902107
 6105.000         0.6904364
 6106.000         0.6906786
 6107.000         0.6909338
 6108.000         0.6911986
 6109.000         0.6914694
 6110.000         0.6917429
 6111.000         0.6920158
 6112.000         0.6922859
 6113.000         0.6925511
 6114.000         0.6928092
 6115.000         0.6930582
 6116.000         0.6932960
 6117.000         0.6935204
 6118.000         0.6937291
 6119.000         0.6939201
 6120.000         0.6940910
 6121.000         0.6942400
 6122.000         0.6943672
 6123.000         0.6944731
 6124.000         0.6945581
 6125.000         0.6946227
 6126.000         0.6946671
 6127.000         0.6946918
 6128.000         0.6946968
 6129.000         0.6946823
 6130.000         0.6946485
 6131.000         0.6945955
 6132.000         0.6945252
 6133.000         0.6944393
 6134.000         0.6943397
 6135.000         0.6942282
 6136.000         0.6941066
 6137.000         0.6939766
 6138.000         0.6938397
 6139.000         0.6936977
 6140.000         0.6935521
 6141.000         0.6934046
 6142.000         0.6932572
 6143.000         0.6931118
 6144.000         0.6929704
 6145.000         0.6928351
 6146.000         0.6927081
 6147.000         0.6925914
 6148.000         0.6924874
 6149.000         0.6923985
 6150.000         0.6923273
 6151.000         0.6922754
 6152.000         0.6922409
 6153.000         0.6922210
 6154.000         0.6922131
 6155.000         0.6922146
 6156.000         0.6922228
 6157.000         0.6922353
 6158.000         0.6922493
 6159.000         0.6922623
 6160.000         0.6922715
 6161.000         0.6922747
 6162.000         0.6922733
 6163.000         0.6922690
 6164.000         0.6922638
 6165.000         0.6922593
 6166.000         0.6922571
 6167.000         0.6922590
 6168.000         0.6922665
 6169.000         0.6922812
 6170.000         0.6923050
 6171.000         0.6923388
 6172.000         0.6923806
 6173.000         0.6924276
 6174.000         0.6924773
 6175.000         0.6925270
 6176.000         0.6925741
 6177.000         0.6926163
 6178.000         0.6926509
 6179.000         0.6926755
 6180.000         0.6926875
 6181.000         0.6926851
 6182.000         0.6926685
 6183.000         0.6926385
 6184.000         0.6925957
 6185.000         0.6925410
 6186.000         0.6924750
 6187.000         0.6923981
 6188.000         0.6923111
 6189.000         0.6922143
 6190.000         0.6921080
 6191.000         0.6919932
 6192.000         0.6918725
 6193.000         0.6917489
 6194.000         0.6916257
 6195.000         0.6915058
 6196.000         0.6913922
 6197.000         0.6912880
 6198.000         0.6911962
 6199.000         0.6911200
 6200.000         0.6910624
 6201.000         0.6910259
 6202.000         0.6910096
 6203.000         0.6910116
 6204.000         0.6910303
 6205.000         0.6910642
 6206.000         0.6911118
 6207.000         0.6911714
 6208.000         0.6912418
 6209.000         0.6913216
 6210.000         0.6914092
 6211.000         0.6915037
 6212.000         0.6916042
 6213.000         0.6917103
 6214.000         0.6918216
 6215.000         0.6919375
 6216.000         0.6920576
 6217.000         0.6921815
 6218.000         0.6923086
 6219.000         0.6924384
 6220.000         0.6925705
 6221.000         0.6927043
 6222.000         0.6928390
 6223.000         0.6929736
 6224.000         0.6931072
 6225.000         0.6932388
 6226.000         0.6933676
 6227.000         0.6934926
 6228.000         0.6936129
 6229.000         0.6937275
 6230.000         0.6938357
 6231.000         0.6939360
 6232.000         0.6940255
 6233.000         0.6941006
 6234.000         0.6941580
 6235.000         0.6941940
 6236.000         0.6942050
 6237.000         0.6941874
 6238.000         0.6941374
 6239.000         0.6940509
 6240.000         0.6939239
 6241.000         0.6937539
 6242.000         0.6935446
 6243.000         0.6933016
 6244.000         0.6930300
 6245.000         0.6927351
 6246.000         0.6924218
 6247.000         0.6920951
 6248.000         0.6917599
 6249.000         0.6914212
 6250.000         0.6910838
 6251.000         0.6907524
 6252.000         0.6904310
 6253.000         0.6901232
 6254.000         0.6898328
 6255.000         0.6895637
 6256.000         0.6893200
 6257.000         0.6891059
 6258.000         0.6889256
 6259.000         0.6887838
 6260.000         0.6886852
 6261.000         0.6886331
 6262.000         0.6886240
 6263.000         0.6886531
 6264.000         0.6887158
 6265.000         0.6888074
 6266.000         0.6889234
 6267.000         0.6890596
 6268.000         0.6892113
 6269.000         0.6893743
 6270.000         0.6895441
 6271.000         0.6897170
 6272.000         0.6898937
 6273.000         0.6900759
 6274.000         0.6902649
 6275.000         0.6904623
 6276.000         0.6906693
 6277.000         0.6908871
 6278.000         0.6911170
 6279.000         0.6913601
 6280.000         0.6916176
 6281.000         0.6918903
 6282.000         0.6921778
 6283.000         0.6924793
 6284.000         0.6927941
 6285.000         0.6931216
 6286.000         0.6934610
 6287.000         0.6938121
 6288.000         0.6941742
 6289.000         0.6945472
 6290.000         0.6949309
 6291.000         0.6953241
 6292.000         0.6957202
 6293.000         0.6961119
 6294.000         0.6964917
 6295.000         0.6968520
 6296.000         0.6971853
 6297.000         0.6974841
 6298.000         0.6977405
 6299.000         0.6979465
 6300.000         0.6980939
 6301.000         0.6981770
 6302.000         0.6982010
 6303.000         0.6981737
 6304.000         0.6981025
 6305.000         0.6979948
 6306.000         0.6978578
 6307.000         0.6976986
 6308.000         0.6975241
 6309.000         0.6973414
 6310.000         0.6971577
 6311.000         0.6969789
 6312.000         0.6968064
 6313.000         0.6966406
 6314.000         0.6964817
 6315.000         0.6963306
 6316.000         0.6961879
 6317.000         0.6960544
 6318.000         0.6959311
 6319.000         0.6958190
 6320.000         0.6957195
 6321.000         0.6956330
 6322.000         0.6955579
 6323.000         0.6954919
 6324.000         0.6954327
 6325.000         0.6953783
 6326.000         0.6953262
 6327.000         0.6952744
 6328.000         0.6952204
 6329.000         0.6951618
 6330.000         0.6950962
 6331.000         0.6950221
 6332.000         0.6949432
 6333.000         0.6948644
 6334.000         0.6947904
 6335.000         0.6947259
 6336.000         0.6946755
 6337.000         0.6946440
 6338.000         0.6946360
 6339.000         0.6946565
 6340.000         0.6947105
 6341.000         0.6948013
 6342.000         0.6949256
 6343.000         0.6950783
 6344.000         0.6952547
 6345.000         0.6954499
 6346.000         0.6956595
 6347.000         0.6958788
 6348.000         0.6961032
 6349.000         0.6963283
 6350.000         0.6965494
 6351.000         0.6967628
 6352.000         0.6969678
 6353.000         0.6971646
 6354.000         0.6973533
 6355.000         0.6975340
 6356.000         0.6977067
 6357.000         0.6978715
 6358.000         0.6980281
 6359.000         0.6981768
 6360.000         0.6983174
 6361.000         0.6984495
 6362.000         0.6985714
 6363.000         0.6986807
 6364.000         0.6987751
 6365.000         0.6988522
 6366.000         0.6989096
 6367.000         0.6989447
 6368.000         0.6989547
 6369.000         0.6989369
 6370.000         0.6988879
 6371.000         0.6988064
 6372.000         0.6986988
 6373.000         0.6985732
 6374.000         0.6984374
 6375.000         0.6982995
 6376.000         0.6981672
 6377.000         0.6980484
 6378.000         0.6979511
 6379.000         0.6978836
 6380.000         0.6978543
 6381.000         0.6978692
 6382.000         0.6979237
 6383.000         0.6980107
 6384.000         0.6981234
 6385.000         0.6982551
 6386.000         0.6983995
 6387.000         0.6985501
 6388.000         0.6987005
 6389.000         0.6988444
 6390.000         0.6989753
 6391.000         0.6990882
 6392.000         0.6991846
 6393.000         0.6992676
 6394.000         0.6993400
 6395.000         0.6994047
 6396.000         0.6994642
 6397.000         0.6995211
 6398.000         0.6995778
 6399.000         0.6996368
 6400.000         0.6997005
 6401.000         0.6997710
 6402.000         0.6998483
 6403.000         0.6999322
 6404.000         0.7000227
 6405.000         0.7001195
 6406.000         0.7002226
 6407.000         0.7003321
 6408.000         0.7004480
 6409.000         0.7005706
 6410.000         0.7007002
 6411.000         0.7008365
 6412.000         0.7009754
 6413.000         0.7011123
 6414.000         0.7012425
 6415.000         0.7013615
 6416.000         0.7014646
 6417.000         0.7015473
 6418.000         0.7016047
 6419.000         0.7016321
 6420.000         0.7016246
 6421.000         0.7015783
 6422.000         0.7014948
 6423.000         0.7013767
 6424.000         0.7012264
 6425.000         0.7010462
 6426.000         0.7008383
 6427.000         0.7006046
 6428.000         0.7003470
 6429.000         0.7000670
 6430.000         0.6997664
 6431.000         0.6994473
 6432.000         0.6991153
 6433.000         0.6987766
 6434.000         0.6984375
 6435.000         0.6981043
 6436.000         0.6977834
 6437.000         0.6974811
 6438.000         0.6972042
 6439.000         0.6969596
 6440.000         0.6967544
 6441.000         0.6965935
 6442.000         0.6964720
 6443.000         0.6963824
 6444.000         0.6963178
 6445.000         0.6962712
 6446.000         0.6962360
 6447.000         0.6962056
 6448.000         0.6961733
 6449.000         0.6961324
 6450.000         0.6960761
 6451.000         0.6959990
 6452.000         0.6959027
 6453.000         0.6957904
 6454.000         0.6956648
 6455.000         0.6955286
 6456.000         0.6953842
 6457.000         0.6952338
 6458.000         0.6950794
 6459.000         0.6949228
 6460.000         0.6947659
 6461.000         0.6946106
 6462.000         0.6944615
 6463.000         0.6943234
 6464.000         0.6942015
 6465.000         0.6941006
 6466.000         0.6940259
 6467.000         0.6939826
 6468.000         0.6939763
 6469.000         0.6940127
 6470.000         0.6940980
 6471.000         0.6942360
 6472.000         0.6944199
 6473.000         0.6946404
 6474.000         0.6948887
 6475.000         0.6951562
 6476.000         0.6954342
 6477.000         0.6957145
 6478.000         0.6959885
 6479.000         0.6962478
 6480.000         0.6964836
 6481.000         0.6966891
 6482.000         0.6968656
 6483.000         0.6970165
 6484.000         0.6971446
 6485.000         0.6972527
 6486.000         0.6973435
 6487.000         0.6974195
 6488.000         0.6974830
 6489.000         0.6975365
 6490.000         0.6975821
 6491.000         0.6976215
 6492.000         0.6976527
 6493.000         0.6976729
 6494.000         0.6976793
 6495.000         0.6976691
 6496.000         0.6976396
 6497.000         0.6975877
 6498.000         0.6975107
 6499.000         0.6974054
 6500.000         0.6972687
 6501.000         0.6970987
 6502.000         0.6968990
 6503.000         0.6966743
 6504.000         0.6964294
 6505.000         0.6961689
 6506.000         0.6958974
 6507.000         0.6956196
 6508.000         0.6953400
 6509.000         0.6950632
 6510.000         0.6947940
 6511.000         0.6945364
 6512.000         0.6942905
 6513.000         0.6940559
 6514.000         0.6938322
 6515.000         0.6936191
 6516.000         0.6934163
 6517.000         0.6932235
 6518.000         0.6930404
 6519.000         0.6928668
 6520.000         0.6927023
 6521.000         0.6925468
 6522.000         0.6924008
 6523.000         0.6922651
 6524.000         0.6921405
 6525.000         0.6920275
 6526.000         0.6919269
 6527.000         0.6918394
 6528.000         0.6917656
 6529.000         0.6917063
 6530.000         0.6916624
 6531.000         0.6916341
 6532.000         0.6916197
 6533.000         0.6916169
 6534.000         0.6916235
 6535.000         0.6916376
 6536.000         0.6916569
 6537.000         0.6916796
 6538.000         0.6917037
 6539.000         0.6917273
 6540.000         0.6917486
 6541.000         0.6917660
 6542.000         0.6917792
 6543.000         0.6917882
 6544.000         0.6917932
 6545.000         0.6917941
 6546.000         0.6917910
 6547.000         0.6917840
 6548.000         0.6917730
 6549.000         0.6917580
 6550.000         0.6917391
 6551.000         0.6917163
 6552.000         0.6916902
 6553.000         0.6916615
 6554.000         0.6916309
 6555.000         0.6915989
 6556.000         0.6915663
 6557.000         0.6915336
 6558.000         0.6915014
 6559.000         0.6914702
 6560.000         0.6914408
 6561.000         0.6914134
 6562.000         0.6913882
 6563.000         0.6913651
 6564.000         0.6913440
 6565.000         0.6913248
 6566.000         0.6913074
 6567.000         0.6912917
 6568.000         0.6912777
 6569.000         0.6912652
 6570.000         0.6912541
 6571.000         0.6912446
 6572.000         0.6912380
 6573.000         0.6912357
 6574.000         0.6912394
 6575.000         0.6912506
 6576.000         0.6912710
 6577.000         0.6913023
 6578.000         0.6913465
 6579.000         0.6914055
 6580.000         0.6914814
 6581.000         0.6915749
 6582.000         0.6916802
 6583.000         0.6917900
 6584.000         0.6918972
 6585.000         0.6919944
 6586.000         0.6920745
 6587.000         0.6921299
 6588.000         0.6921528
 6589.000         0.6921353
 6590.000         0.6920691
 6591.000         0.6919486
 6592.000         0.6917819
 6593.000         0.6915797
 6594.000         0.6913527
 6595.000         0.6911112
 6596.000         0.6908657
 6597.000         0.6906263
 6598.000         0.6904037
 6599.000         0.6902083
 6600.000         0.6900514
 6601.000         0.6899404
 6602.000         0.6898680
 6603.000         0.6898233
 6604.000         0.6897958
 6605.000         0.6897754
 6606.000         0.6897518
 6607.000         0.6897149
 6608.000         0.6896545
 6609.000         0.6895602
 6610.000         0.6894213
 6611.000         0.6892307
 6612.000         0.6889980
 6613.000         0.6887367
 6614.000         0.6884598
 6615.000         0.6881802
 6616.000         0.6879105
 6617.000         0.6876636
 6618.000         0.6874522
 6619.000         0.6872896
 6620.000         0.6871893
 6621.000         0.6871606
 6622.000         0.6871948
 6623.000         0.6872789
 6624.000         0.6874007
 6625.000         0.6875478
 6626.000         0.6877084
 6627.000         0.6878704
 6628.000         0.6880220
 6629.000         0.6881510
 6630.000         0.6882451
 6631.000         0.6882951
 6632.000         0.6883040
 6633.000         0.6882783
 6634.000         0.6882236
 6635.000         0.6881458
 6636.000         0.6880504
 6637.000         0.6879428
 6638.000         0.6878285
 6639.000         0.6877129
 6640.000         0.6876018
 6641.000         0.6874994
 6642.000         0.6874040
 6643.000         0.6873125
 6644.000         0.6872221
 6645.000         0.6871301
 6646.000         0.6870337
 6647.000         0.6869302
 6648.000         0.6868171
 6649.000         0.6866915
 6650.000         0.6865506
 6651.000         0.6863930
 6652.000         0.6862247
 6653.000         0.6860532
 6654.000         0.6858858
 6655.000         0.6857298
 6656.000         0.6855925
 6657.000         0.6854809
 6658.000         0.6854025
 6659.000         0.6853647
 6660.000         0.6853749
 6661.000         0.6854383
 6662.000         0.6855495
 6663.000         0.6857006
 6664.000         0.6858841
 6665.000         0.6860923
 6666.000         0.6863178
 6667.000         0.6865531
 6668.000         0.6867907
 6669.000         0.6870231
 6670.000         0.6872428
 6671.000         0.6874433
 6672.000         0.6876247
 6673.000         0.6877881
 6674.000         0.6879347
 6675.000         0.6880656
 6676.000         0.6881818
 6677.000         0.6882845
 6678.000         0.6883749
 6679.000         0.6884542
 6680.000         0.6885239
 6681.000         0.6885846
 6682.000         0.6886327
 6683.000         0.6886641
 6684.000         0.6886743
 6685.000         0.6886594
 6686.000         0.6886150
 6687.000         0.6885369
 6688.000         0.6884207
 6689.000         0.6882616
 6690.000         0.6880548
 6691.000         0.6877976
 6692.000         0.6874971
 6693.000         0.6871627
 6694.000         0.6868037
 6695.000         0.6864290
 6696.000         0.6860471
 6697.000         0.6856668
 6698.000         0.6852966
 6699.000         0.6849451
 6700.000         0.6846211
 6701.000         0.6843317
 6702.000         0.6840775
 6703.000         0.6838578
 6704.000         0.6836720
 6705.000         0.6835199
 6706.000         0.6834014
 6707.000         0.6833166
 6708.000         0.6832662
 6709.000         0.6832510
 6710.000         0.6832721
 6711.000         0.6833285
 6712.000         0.6834104
 6713.000         0.6835057
 6714.000         0.6836025
 6715.000         0.6836890
 6716.000         0.6837531
 6717.000         0.6837829
 6718.000         0.6837659
 6719.000         0.6836894
 6720.000         0.6835402
 6721.000         0.6833095
 6722.000         0.6830083
 6723.000         0.6826522
 6724.000         0.6822562
 6725.000         0.6818349
 6726.000         0.6814029
 6727.000         0.6809746
 6728.000         0.6805644
 6729.000         0.6801870
 6730.000         0.6798573
 6731.000         0.6795867
 6732.000         0.6793703
 6733.000         0.6791999
 6734.000         0.6790676
 6735.000         0.6789657
 6736.000         0.6788871
 6737.000         0.6788247
 6738.000         0.6787714
 6739.000         0.6787204
 6740.000         0.6786647
 6741.000         0.6785985
 6742.000         0.6785220
 6743.000         0.6784367
 6744.000         0.6783437
 6745.000         0.6782442
 6746.000         0.6781389
 6747.000         0.6780287
 6748.000         0.6779142
 6749.000         0.6777959
 6750.000         0.6776742
 6751.000         0.6775498
 6752.000         0.6774246
 6753.000         0.6773010
 6754.000         0.6771812
 6755.000         0.6770674
 6756.000         0.6769620
 6757.000         0.6768674
 6758.000         0.6767859
 6759.000         0.6767201
 6760.000         0.6766728
 6761.000         0.6766454
 6762.000         0.6766337
 6763.000         0.6766324
 6764.000         0.6766360
 6765.000         0.6766394
 6766.000         0.6766373
 6767.000         0.6766245
 6768.000         0.6765954
 6769.000         0.6765445
 6770.000         0.6764662
 6771.000         0.6763567
 6772.000         0.6762212
 6773.000         0.6760670
 6774.000         0.6759010
 6775.000         0.6757305
 6776.000         0.6755622
 6777.000         0.6754032
 6778.000         0.6752606
 6779.000         0.6751417
 6780.000         0.6750542
 6781.000         0.6750033
 6782.000         0.6749848
 6783.000         0.6749920
 6784.000         0.6750188
 6785.000         0.6750590
 6786.000         0.6751067
 6787.000         0.6751560
 6788.000         0.6752013
 6789.000         0.6752365
 6790.000         0.6752557
 6791.000         0.6752546
 6792.000         0.6752363
 6793.000         0.6752056
 6794.000         0.6751671
 6795.000         0.6751253
 6796.000         0.6750845
 6797.000         0.6750492
 6798.000         0.6750235
 6799.000         0.6750117
 6800.000         0.6750182
 6801.000         0.6750461
 6802.000         0.6750933
 6803.000         0.6751566
 6804.000         0.6752328
 6805.000         0.6753188
 6806.000         0.6754115
 6807.000         0.6755078
 6808.000         0.6756045
 6809.000         0.6756984
 6810.000         0.6757865
 6811.000         0.6758659
 6812.000         0.6759369
 6813.000         0.6760002
 6814.000         0.6760564
 6815.000         0.6761060
 6816.000         0.6761497
 6817.000         0.6761880
 6818.000         0.6762214
 6819.000         0.6762505
 6820.000         0.6762757
 6821.000         0.6762974
 6822.000         0.6763146
 6823.000         0.6763263
 6824.000         0.6763312
 6825.000         0.6763282
 6826.000         0.6763162
 6827.000         0.6762940
 6828.000         0.6762603
 6829.000         0.6762139
 6830.000         0.6761534
 6831.000         0.6760782
 6832.000         0.6759906
 6833.000         0.6758937
 6834.000         0.6757905
 6835.000         0.6756842
 6836.000         0.6755776
 6837.000         0.6754739
 6838.000         0.6753761
 6839.000         0.6752875
 6840.000         0.6752113
 6841.000         0.6751497
 6842.000         0.6751004
 6843.000         0.6750597
 6844.000         0.6750244
 6845.000         0.6749911
 6846.000         0.6749565
 6847.000         0.6749173
 6848.000         0.6748702
 6849.000         0.6748119
 6850.000         0.6747388
 6851.000         0.6746487
 6852.000         0.6745435
 6853.000         0.6744266
 6854.000         0.6743010
 6855.000         0.6741696
 6856.000         0.6740354
 6857.000         0.6739015
 6858.000         0.6737706
 6859.000         0.6736459
 6860.000         0.6735305
 6861.000         0.6734261
 6862.000         0.6733296
 6863.000         0.6732364
 6864.000         0.6731423
 6865.000         0.6730426
 6866.000         0.6729332
 6867.000         0.6728094
 6868.000         0.6726668
 6869.000         0.6725005
 6870.000         0.6723058
 6871.000         0.6720789
 6872.000         0.6718219
 6873.000         0.6715380
 6874.000         0.6712304
 6875.000         0.6709019
 6876.000         0.6705552
 6877.000         0.6701931
 6878.000         0.6698179
 6879.000         0.6694324
 6880.000         0.6690388
 6881.000         0.6686402
 6882.000         0.6682407
 6883.000         0.6678452
 6884.000         0.6674584
 6885.000         0.6670853
 6886.000         0.6667311
 6887.000         0.6664009
 6888.000         0.6661003
 6889.000         0.6658350
 6890.000         0.6656112
 6891.000         0.6654331
 6892.000         0.6652975
 6893.000         0.6651994
 6894.000         0.6651342
 6895.000         0.6650972
 6896.000         0.6650842
 6897.000         0.6650907
 6898.000         0.6651124
 6899.000         0.6651449
 6900.000         0.6651835
 6901.000         0.6652245
 6902.000         0.6652685
 6903.000         0.6653171
 6904.000         0.6653715
 6905.000         0.6654328
 6906.000         0.6655022
 6907.000         0.6655804
 6908.000         0.6656684
 6909.000         0.6657671
 6910.000         0.6658773
 6911.000         0.6659994
 6912.000         0.6661306
 6913.000         0.6662673
 6914.000         0.6664063
 6915.000         0.6665442
 6916.000         0.6666779
 6917.000         0.6668043
 6918.000         0.6669202
 6919.000         0.6670227
 6920.000         0.6671089
 6921.000         0.6671762
 6922.000         0.6672235
 6923.000         0.6672499
 6924.000         0.6672547
 6925.000         0.6672371
 6926.000         0.6671963
 6927.000         0.6671314
 6928.000         0.6670415
 6929.000         0.6669255
 6930.000         0.6667823
 6931.000         0.6666113
 6932.000         0.6664148
 6933.000         0.6661958
 6934.000         0.6659570
 6935.000         0.6657011
 6936.000         0.6654306
 6937.000         0.6651481
 6938.000         0.6648558
 6939.000         0.6645561
 6940.000         0.6642513
 6941.000         0.6639435
 6942.000         0.6636344
 6943.000         0.6633257
 6944.000         0.6630190
 6945.000         0.6627159
 6946.000         0.6624180
 6947.000         0.6621269
 6948.000         0.6618444
 6949.000         0.6615721
 6950.000         0.6613119
 6951.000         0.6610652
 6952.000         0.6608328
 6953.000         0.6606151
 6954.000         0.6604124
 6955.000         0.6602254
 6956.000         0.6600547
 6957.000         0.6599009
 6958.000         0.6597649
 6959.000         0.6596473
 6960.000         0.6595492
 6961.000         0.6594711
 6962.000         0.6594122
 6963.000         0.6593717
 6964.000         0.6593486
 6965.000         0.6593421
 6966.000         0.6593515
 6967.000         0.6593761
 6968.000         0.6594151
 6969.000         0.6594682
 6970.000         0.6595347
 6971.000         0.6596133
 6972.000         0.6596987
 6973.000         0.6597844
 6974.000         0.6598642
 6975.000         0.6599314
 6976.000         0.6599796
 6977.000         0.6600020
 6978.000         0.6599914
 6979.000         0.6599406
 6980.000         0.6598417
 6981.000         0.6596904
 6982.000         0.6594967
 6983.000         0.6592743
 6984.000         0.6590365
 6985.000         0.6587964
 6986.000         0.6585673
 6987.000         0.6583627
 6988.000         0.6581961
 6989.000         0.6580818
 6990.000         0.6580344
 6991.000         0.6580637
 6992.000         0.6581570
 6993.000         0.6582966
 6994.000         0.6584654
 6995.000         0.6586466
 6996.000         0.6588236
 6997.000         0.6589800
 6998.000         0.6590992
 6999.000         0.6591643
 7000.000         0.6591582
 7001.000         0.6590683
 7002.000         0.6589029
 7003.000         0.6586749
 7004.000         0.6583966
 7005.000         0.6580801
 7006.000         0.6577368
 7007.000         0.6573782
 7008.000         0.6570157
 7009.000         0.6566603
 7010.000         0.6563234
 7011.000         0.6560142
 7012.000         0.6557330
 7013.000         0.6554781
 7014.000         0.6552480
 7015.000         0.6550414
 7016.000         0.6548571
 7017.000         0.6546943
 7018.000         0.6545519
 7019.000         0.6544293
 7020.000         0.6543257
 7021.000         0.6542400
 7022.000         0.6541693
 7023.000         0.6541102
 7024.000         0.6540591
 7025.000         0.6540128
 7026.000         0.6539676
 7027.000         0.6539200
 7028.000         0.6538664
 7029.000         0.6538031
 7030.000         0.6537261
 7031.000         0.6536325
 7032.000         0.6535234
 7033.000         0.6534009
 7034.000         0.6532668
 7035.000         0.6531230
 7036.000         0.6529714
 7037.000         0.6528139
 7038.000         0.6526522
 7039.000         0.6524884
 7040.000         0.6523246
 7041.000         0.6521617
 7042.000         0.6519963
 7043.000         0.6518237
 7044.000         0.6516394
 7045.000         0.6514388
 7046.000         0.6512174
 7047.000         0.6509703
 7048.000         0.6506927
 7049.000         0.6503795
 7050.000         0.6500250
 7051.000         0.6496272
 7052.000         0.6491987
 7053.000         0.6487555
 7054.000         0.6483136
 7055.000         0.6478886
 7056.000         0.6474963
 7057.000         0.6471528
 7058.000         0.6468744
 7059.000         0.6466779
 7060.000         0.6465808
 7061.000         0.6465948
 7062.000         0.6467064
 7063.000         0.6468961
 7064.000         0.6471454
 7065.000         0.6474358
 7066.000         0.6477494
 7067.000         0.6480682
 7068.000         0.6483743
 7069.000         0.6486494
 7070.000         0.6488749
 7071.000         0.6490369
 7072.000         0.6491415
 7073.000         0.6491995
 7074.000         0.6492215
 7075.000         0.6492172
 7076.000         0.6491966
 7077.000         0.6491691
 7078.000         0.6491444
 7079.000         0.6491321
 7080.000         0.6491420
 7081.000         0.6491811
 7082.000         0.6492447
 7083.000         0.6493250
 7084.000         0.6494147
 7085.000         0.6495066
 7086.000         0.6495934
 7087.000         0.6496682
 7088.000         0.6497237
 7089.000         0.6497526
 7090.000         0.6497476
 7091.000         0.6497033
 7092.000         0.6496246
 7093.000         0.6495186
 7094.000         0.6493921
 7095.000         0.6492519
 7096.000         0.6491045
 7097.000         0.6489567
 7098.000         0.6488151
 7099.000         0.6486865
 7100.000         0.6485779
 7101.000         0.6484939
 7102.000         0.6484284
 7103.000         0.6483730
 7104.000         0.6483196
 7105.000         0.6482598
 7106.000         0.6481854
 7107.000         0.6480881
 7108.000         0.6479595
 7109.000         0.6477908
 7110.000         0.6475727
 7111.000         0.6472995
 7112.000         0.6469797
 7113.000         0.6466252
 7114.000         0.6462475
 7115.000         0.6458578
 7116.000         0.6454673
 7117.000         0.6450871
 7118.000         0.6447283
 7119.000         0.6444022
 7120.000         0.6441206
 7121.000         0.6438918
 7122.000         0.6437108
 7123.000         0.6435693
 7124.000         0.6434593
 7125.000         0.6433733
 7126.000         0.6433039
 7127.000         0.6432439
 7128.000         0.6431861
 7129.000         0.6431235
 7130.000         0.6430490
 7131.000         0.6429564
 7132.000         0.6428450
 7133.000         0.6427148
 7134.000         0.6425660
 7135.000         0.6423982
 7136.000         0.6422112
 7137.000         0.6420044
 7138.000         0.6417770
 7139.000         0.6415282
 7140.000         0.6412568
 7141.000         0.6409631
 7142.000         0.6406530
 7143.000         0.6403341
 7144.000         0.6400138
 7145.000         0.6396995
 7146.000         0.6393986
 7147.000         0.6391186
 7148.000         0.6388675
 7149.000         0.6386532
 7150.000         0.6384842
 7151.000         0.6383660
 7152.000         0.6382920
 7153.000         0.6382522
 7154.000         0.6382375
 7155.000         0.6382387
 7156.000         0.6382469
 7157.000         0.6382533
 7158.000         0.6382490
 7159.000         0.6382250
 7160.000         0.6381722
 7161.000         0.6380835
 7162.000         0.6379617
 7163.000         0.6378119
 7164.000         0.6376385
 7165.000         0.6374461
 7166.000         0.6372386
 7167.000         0.6370201
 7168.000         0.6367941
 7169.000         0.6365644
 7170.000         0.6363344
 7171.000         0.6361073
 7172.000         0.6358859
 7173.000         0.6356725
 7174.000         0.6354696
 7175.000         0.6352795
 7176.000         0.6351049
 7177.000         0.6349481
 7178.000         0.6348119
 7179.000         0.6346987
 7180.000         0.6346115
 7181.000         0.6345524
 7182.000         0.6345218
 7183.000         0.6345191
 7184.000         0.6345444
 7185.000         0.6345978
 7186.000         0.6346796
 7187.000         0.6347905
 7188.000         0.6349314
 7189.000         0.6351035
 7190.000         0.6353084
 7191.000         0.6355448
 7192.000         0.6357989
 7193.000         0.6360538
 7194.000         0.6362928
 7195.000         0.6364991
 7196.000         0.6366558
 7197.000         0.6367460
 7198.000         0.6367518
 7199.000         0.6366554
 7200.000         0.6364377
 7201.000         0.6360868
 7202.000         0.6356193
 7203.000         0.6350587
 7204.000         0.6344278
 7205.000         0.6337488
 7206.000         0.6330436
 7207.000         0.6323341
 7208.000         0.6316419
 7209.000         0.6309892
 7210.000         0.6303984
 7211.000         0.6298869
 7212.000         0.6294506
 7213.000         0.6290805
 7214.000         0.6287682
 7215.000         0.6285060
 7216.000         0.6282866
 7217.000         0.6281027
 7218.000         0.6279477
 7219.000         0.6278148
 7220.000         0.6276973
 7221.000         0.6275895
 7222.000         0.6274897
 7223.000         0.6273971
 7224.000         0.6273106
 7225.000         0.6272291
 7226.000         0.6271513
 7227.000         0.6270755
 7228.000         0.6270002
 7229.000         0.6269234
 7230.000         0.6268433
 7231.000         0.6267584
 7232.000         0.6266704
 7233.000         0.6265815
 7234.000         0.6264939
 7235.000         0.6264098
 7236.000         0.6263313
 7237.000         0.6262608
 7238.000         0.6262006
 7239.000         0.6261533
 7240.000         0.6261217
 7241.000         0.6261071
 7242.000         0.6261048
 7243.000         0.6261089
 7244.000         0.6261132
 7245.000         0.6261122
 7246.000         0.6260998
 7247.000         0.6260704
 7248.000         0.6260180
 7249.000         0.6259366
 7250.000         0.6258197
 7251.000         0.6256633
 7252.000         0.6254720
 7253.000         0.6252527
 7254.000         0.6250121
 7255.000         0.6247564
 7256.000         0.6244919
 7257.000         0.6242250
 7258.000         0.6239617
 7259.000         0.6237083
 7260.000         0.6234712
 7261.000         0.6232552
 7262.000         0.6230579
 7263.000         0.6228758
 7264.000         0.6227053
 7265.000         0.6225427
 7266.000         0.6223849
 7267.000         0.6222285
 7268.000         0.6220701
 7269.000         0.6219067
 7270.000         0.6217347
 7271.000         0.6215517
 7272.000         0.6213584
 7273.000         0.6211561
 7274.000         0.6209463
 7275.000         0.6207301
 7276.000         0.6205089
 7277.000         0.6202838
 7278.000         0.6200561
 7279.000         0.6198269
 7280.000         0.6195974
 7281.000         0.6193687
 7282.000         0.6191415
 7283.000         0.6189163
 7284.000         0.6186937
 7285.000         0.6184742
 7286.000         0.6182587
 7287.000         0.6180478
 7288.000         0.6178423
 7289.000         0.6176431
 7290.000         0.6174510
 7291.000         0.6172665
 7292.000         0.6170874
 7293.000         0.6169111
 7294.000         0.6167350
 7295.000         0.6165563
 7296.000         0.6163724
 7297.000         0.6161807
 7298.000         0.6159781
 7299.000         0.6157619
 7300.000         0.6155288
 7301.000         0.6152770
 7302.000         0.6150103
 7303.000         0.6147336
 7304.000         0.6144520
 7305.000         0.6141701
 7306.000         0.6138929
 7307.000         0.6136251
 7308.000         0.6133717
 7309.000         0.6131378
 7310.000         0.6129286
 7311.000         0.6127474
 7312.000         0.6125884
 7313.000         0.6124438
 7314.000         0.6123061
 7315.000         0.6121678
 7316.000         0.6120215
 7317.000         0.6118596
 7318.000         0.6116748
 7319.000         0.6114592
 7320.000         0.6112049
 7321.000         0.6109065
 7322.000         0.6105694
 7323.000         0.6102016
 7324.000         0.6098108
 7325.000         0.6094044
 7326.000         0.6089897
 7327.000         0.6085739
 7328.000         0.6081643
 7329.000         0.6077679
 7330.000         0.6073921
 7331.000         0.6070432
 7332.000         0.6067237
 7333.000         0.6064351
 7334.000         0.6061792
 7335.000         0.6059582
 7336.000         0.6057741
 7337.000         0.6056294
 7338.000         0.6055269
 7339.000         0.6054695
 7340.000         0.6054603
 7341.000         0.6055010
 7342.000         0.6055861
 7343.000         0.6057083
 7344.000         0.6058607
 7345.000         0.6060365
 7346.000         0.6062288
 7347.000         0.6064310
 7348.000         0.6066363
 7349.000         0.6068378
 7350.000         0.6070285
 7351.000         0.6072025
 7352.000         0.6073584
 7353.000         0.6074957
 7354.000         0.6076138
 7355.000         0.6077119
 7356.000         0.6077889
 7357.000         0.6078437
 7358.000         0.6078750
 7359.000         0.6078811
 7360.000         0.6078605
 7361.000         0.6078125
 7362.000         0.6077411
 7363.000         0.6076516
 7364.000         0.6075492
 7365.000         0.6074390
 7366.000         0.6073259
 7367.000         0.6072154
 7368.000         0.6071126
 7369.000         0.6070229
 7370.000         0.6069522
 7371.000         0.6069040
 7372.000         0.6068731
 7373.000         0.6068521
 7374.000         0.6068340
 7375.000         0.6068117
 7376.000         0.6067784
 7377.000         0.6067269
 7378.000         0.6066502
 7379.000         0.6065410
 7380.000         0.6063916
 7381.000         0.6061971
 7382.000         0.6059624
 7383.000         0.6056950
 7384.000         0.6054021
 7385.000         0.6050907
 7386.000         0.6047676
 7387.000         0.6044397
 7388.000         0.6041135
 7389.000         0.6037961
 7390.000         0.6034943
 7391.000         0.6032132
 7392.000         0.6029500
 7393.000         0.6027000
 7394.000         0.6024588
 7395.000         0.6022220
 7396.000         0.6019854
 7397.000         0.6017448
 7398.000         0.6014961
 7399.000         0.6012349
 7400.000         0.6009571
 7401.000         0.6006593
 7402.000         0.6003429
 7403.000         0.6000101
 7404.000         0.5996632
 7405.000         0.5993041
 7406.000         0.5989349
 7407.000         0.5985574
 7408.000         0.5981734
 7409.000         0.5977846
 7410.000         0.5973928
 7411.000         0.5969997
 7412.000         0.5966067
 7413.000         0.5962155
 7414.000         0.5958275
 7415.000         0.5954443
 7416.000         0.5950675
 7417.000         0.5946988
 7418.000         0.5943399
 7419.000         0.5939928
 7420.000         0.5936592
 7421.000         0.5933411
 7422.000         0.5930390
 7423.000         0.5927537
 7424.000         0.5924858
 7425.000         0.5922363
 7426.000         0.5920061
 7427.000         0.5917966
 7428.000         0.5916089
 7429.000         0.5914447
 7430.000         0.5913056
 7431.000         0.5911921
 7432.000         0.5910985
 7433.000         0.5910182
 7434.000         0.5909442
 7435.000         0.5908698
 7436.000         0.5907880
 7437.000         0.5906919
 7438.000         0.5905741
 7439.000         0.5904270
 7440.000         0.5902426
 7441.000         0.5900160
 7442.000         0.5897564
 7443.000         0.5894758
 7444.000         0.5891862
 7445.000         0.5888993
 7446.000         0.5886267
 7447.000         0.5883802
 7448.000         0.5881716
 7449.000         0.5880132
 7450.000         0.5879178
 7451.000         0.5878938
 7452.000         0.5879309
 7453.000         0.5880147
 7454.000         0.5881310
 7455.000         0.5882663
 7456.000         0.5884071
 7457.000         0.5885401
 7458.000         0.5886519
 7459.000         0.5887291
 7460.000         0.5887579
 7461.000         0.5887281
 7462.000         0.5886443
 7463.000         0.5885144
 7464.000         0.5883461
 7465.000         0.5881467
 7466.000         0.5879232
 7467.000         0.5876826
 7468.000         0.5874316
 7469.000         0.5871768
 7470.000         0.5869250
 7471.000         0.5866810
 7472.000         0.5864423
 7473.000         0.5862042
 7474.000         0.5859624
 7475.000         0.5857125
 7476.000         0.5854499
 7477.000         0.5851698
 7478.000         0.5848675
 7479.000         0.5845377
 7480.000         0.5841750
 7481.000         0.5837768
 7482.000         0.5833525
 7483.000         0.5829144
 7484.000         0.5824744
 7485.000         0.5820446
 7486.000         0.5816369
 7487.000         0.5812636
 7488.000         0.5809372
 7489.000         0.5806706
 7490.000         0.5804773
 7491.000         0.5803663
 7492.000         0.5803269
 7493.000         0.5803440
 7494.000         0.5804030
 7495.000         0.5804896
 7496.000         0.5805901
 7497.000         0.5806906
 7498.000         0.5807775
 7499.000         0.5808371
 7500.000         0.5808552
 7501.000         0.5808211
 7502.000         0.5807380
 7503.000         0.5806126
 7504.000         0.5804509
 7505.000         0.5802587
 7506.000         0.5800413
 7507.000         0.5798040
 7508.000         0.5795517
 7509.000         0.5792894
 7510.000         0.5790218
 7511.000         0.5787534
 7512.000         0.5784885
 7513.000         0.5782311
 7514.000         0.5779854
 7515.000         0.5777558
 7516.000         0.5775466
 7517.000         0.5773624
 7518.000         0.5772081
 7519.000         0.5770887
 7520.000         0.5770096
 7521.000         0.5769738
 7522.000         0.5769741
 7523.000         0.5770008
 7524.000         0.5770443
 7525.000         0.5770953
 7526.000         0.5771446
 7527.000         0.5771828
 7528.000         0.5772005
 7529.000         0.5771880
 7530.000         0.5771352
 7531.000         0.5770351
 7532.000         0.5768937
 7533.000         0.5767201
 7534.000         0.5765228
 7535.000         0.5763102
 7536.000         0.5760904
 7537.000         0.5758716
 7538.000         0.5756617
 7539.000         0.5754689
 7540.000         0.5753013
 7541.000         0.5751650
 7542.000         0.5750576
 7543.000         0.5749743
 7544.000         0.5749108
 7545.000         0.5748628
 7546.000         0.5748262
 7547.000         0.5747971
 7548.000         0.5747716
 7549.000         0.5747457
 7550.000         0.5747157
 7551.000         0.5746785
 7552.000         0.5746338
 7553.000         0.5745822
 7554.000         0.5745243
 7555.000         0.5744605
 7556.000         0.5743913
 7557.000         0.5743172
 7558.000         0.5742386
 7559.000         0.5741560
 7560.000         0.5740700
 7561.000         0.5739807
 7562.000         0.5738871
 7563.000         0.5737881
 7564.000         0.5736823
 7565.000         0.5735686
 7566.000         0.5734457
 7567.000         0.5733123
 7568.000         0.5731671
 7569.000         0.5730088
 7570.000         0.5728357
 7571.000         0.5726469
 7572.000         0.5724432
 7573.000         0.5722255
 7574.000         0.5719950
 7575.000         0.5717526
 7576.000         0.5714991
 7577.000         0.5712353
 7578.000         0.5709620
 7579.000         0.5706798
 7580.000         0.5703892
 7581.000         0.5700912
 7582.000         0.5697882
 7583.000         0.5694829
 7584.000         0.5691778
 7585.000         0.5688758
 7586.000         0.5685796
 7587.000         0.5682920
 7588.000         0.5680160
 7589.000         0.5677544
 7590.000         0.5675105
 7591.000         0.5672861
 7592.000         0.5670769
 7593.000         0.5668772
 7594.000         0.5666816
 7595.000         0.5664844
 7596.000         0.5662802
 7597.000         0.5660633
 7598.000         0.5658279
 7599.000         0.5655681
 7600.000         0.5652777
 7601.000         0.5649526
 7602.000         0.5645984
 7603.000         0.5642231
 7604.000         0.5638343
 7605.000         0.5634394
 7606.000         0.5630457
 7607.000         0.5626606
 7608.000         0.5622915
 7609.000         0.5619459
 7610.000         0.5616318
 7611.000         0.5613543
 7612.000         0.5611086
 7613.000         0.5608873
 7614.000         0.5606832
 7615.000         0.5604894
 7616.000         0.5602993
 7617.000         0.5601062
 7618.000         0.5599036
 7619.000         0.5596849
 7620.000         0.5594434
 7621.000         0.5591742
 7622.000         0.5588795
 7623.000         0.5585633
 7624.000         0.5582292
 7625.000         0.5578810
 7626.000         0.5575222
 7627.000         0.5571563
 7628.000         0.5567868
 7629.000         0.5564169
 7630.000         0.5560503
 7631.000         0.5556896
 7632.000         0.5553341
 7633.000         0.5549825
 7634.000         0.5546336
 7635.000         0.5542860
 7636.000         0.5539384
 7637.000         0.5535894
 7638.000         0.5532378
 7639.000         0.5528821
 7640.000         0.5525208
 7641.000         0.5521529
 7642.000         0.5517808
 7643.000         0.5514071
 7644.000         0.5510348
 7645.000         0.5506664
 7646.000         0.5503046
 7647.000         0.5499520
 7648.000         0.5496114
 7649.000         0.5492855
 7650.000         0.5489770
 7651.000         0.5486882
 7652.000         0.5484191
 7653.000         0.5481688
 7654.000         0.5479370
 7655.000         0.5477230
 7656.000         0.5475268
 7657.000         0.5473479
 7658.000         0.5471865
 7659.000         0.5470424
 7660.000         0.5469158
 7661.000         0.5468063
 7662.000         0.5467117
 7663.000         0.5466291
 7664.000         0.5465556
 7665.000         0.5464887
 7666.000         0.5464256
 7667.000         0.5463635
 7668.000         0.5462997
 7669.000         0.5462314
 7670.000         0.5461557
 7671.000         0.5460704
 7672.000         0.5459758
 7673.000         0.5458732
 7674.000         0.5457635
 7675.000         0.5456476
 7676.000         0.5455264
 7677.000         0.5454007
 7678.000         0.5452712
 7679.000         0.5451386
 7680.000         0.5450036
 7681.000         0.5448667
 7682.000         0.5447280
 7683.000         0.5445872
 7684.000         0.5444443
 7685.000         0.5442991
 7686.000         0.5441513
 7687.000         0.5440009
 7688.000         0.5438475
 7689.000         0.5436909
 7690.000         0.5435307
 7691.000         0.5433677
 7692.000         0.5432068
 7693.000         0.5430540
 7694.000         0.5429153
 7695.000         0.5427968
 7696.000         0.5427049
 7697.000         0.5426462
 7698.000         0.5426275
 7699.000         0.5426560
 7700.000         0.5427396
 7701.000         0.5428826
 7702.000         0.5430756
 7703.000         0.5433059
 7704.000         0.5435611
 7705.000         0.5438292
 7706.000         0.5440982
 7707.000         0.5443560
 7708.000         0.5445904
 7709.000         0.5447892
 7710.000         0.5449396
 7711.000         0.5450313
 7712.000         0.5450664
 7713.000         0.5450493
 7714.000         0.5449837
 7715.000         0.5448733
 7716.000         0.5447210
 7717.000         0.5445293
 7718.000         0.5443006
 7719.000         0.5440368
 7720.000         0.5437395
 7721.000         0.5434111
 7722.000         0.5430590
 7723.000         0.5426915
 7724.000         0.5423169
 7725.000         0.5419433
 7726.000         0.5415789
 7727.000         0.5412322
 7728.000         0.5409119
 7729.000         0.5406267
 7730.000         0.5403861
 7731.000         0.5401966
 7732.000         0.5400525
 7733.000         0.5399454
 7734.000         0.5398671
 7735.000         0.5398101
 7736.000         0.5397670
 7737.000         0.5397306
 7738.000         0.5396941
 7739.000         0.5396506
 7740.000         0.5395932
 7741.000         0.5395161
 7742.000         0.5394171
 7743.000         0.5392949
 7744.000         0.5391482
 7745.000         0.5389753
 7746.000         0.5387744
 7747.000         0.5385437
 7748.000         0.5382808
 7749.000         0.5379835
 7750.000         0.5376488
 7751.000         0.5372758
 7752.000         0.5368714
 7753.000         0.5364442
 7754.000         0.5360026
 7755.000         0.5355550
 7756.000         0.5351094
 7757.000         0.5346741
 7758.000         0.5342573
 7759.000         0.5338674
 7760.000         0.5335129
 7761.000         0.5332002
 7762.000         0.5329246
 7763.000         0.5326794
 7764.000         0.5324581
 7765.000         0.5322543
 7766.000         0.5320618
 7767.000         0.5318747
 7768.000         0.5316869
 7769.000         0.5314924
 7770.000         0.5312851
 7771.000         0.5310602
 7772.000         0.5308189
 7773.000         0.5305639
 7774.000         0.5302973
 7775.000         0.5300216
 7776.000         0.5297387
 7777.000         0.5294508
 7778.000         0.5291598
 7779.000         0.5288677
 7780.000         0.5285763
 7781.000         0.5282873
 7782.000         0.5280006
 7783.000         0.5277160
 7784.000         0.5274331
 7785.000         0.5271517
 7786.000         0.5268715
 7787.000         0.5265923
 7788.000         0.5263137
 7789.000         0.5260356
 7790.000         0.5257575
 7791.000         0.5254794
 7792.000         0.5252009
 7793.000         0.5249220
 7794.000         0.5246425
 7795.000         0.5243620
 7796.000         0.5240804
 7797.000         0.5237975
 7798.000         0.5235128
 7799.000         0.5232260
 7800.000         0.5229368
 7801.000         0.5226448
 7802.000         0.5223497
 7803.000         0.5220515
 7804.000         0.5217498
 7805.000         0.5214444
 7806.000         0.5211350
 7807.000         0.5208210
 7808.000         0.5205021
 7809.000         0.5201776
 7810.000         0.5198468
 7811.000         0.5195097
 7812.000         0.5191689
 7813.000         0.5188276
 7814.000         0.5184890
 7815.000         0.5181562
 7816.000         0.5178326
 7817.000         0.5175212
 7818.000         0.5172255
 7819.000         0.5169489
 7820.000         0.5166949
 7821.000         0.5164665
 7822.000         0.5162627
 7823.000         0.5160819
 7824.000         0.5159227
 7825.000         0.5157839
 7826.000         0.5156644
 7827.000         0.5155635
 7828.000         0.5154803
 7829.000         0.5154145
 7830.000         0.5153658
 7831.000         0.5153329
 7832.000         0.5153105
 7833.000         0.5152922
 7834.000         0.5152719
 7835.000         0.5152431
 7836.000         0.5151998
 7837.000         0.5151355
 7838.000         0.5150438
 7839.000         0.5149178
 7840.000         0.5147507
 7841.000         0.5145373
 7842.000         0.5142812
 7843.000         0.5139881
 7844.000         0.5136629
 7845.000         0.5133106
 7846.000         0.5129359
 7847.000         0.5125432
 7848.000         0.5121369
 7849.000         0.5117211
 7850.000         0.5112999
 7851.000         0.5108774
 7852.000         0.5104586
 7853.000         0.5100481
 7854.000         0.5096511
 7855.000         0.5092725
 7856.000         0.5089177
 7857.000         0.5085919
 7858.000         0.5083010
 7859.000         0.5080509
 7860.000         0.5078478
 7861.000         0.5076960
 7862.000         0.5075898
 7863.000         0.5075212
 7864.000         0.5074830
 7865.000         0.5074677
 7866.000         0.5074685
 7867.000         0.5074784
 7868.000         0.5074907
 7869.000         0.5074986
 7870.000         0.5074952
 7871.000         0.5074747
 7872.000         0.5074349
 7873.000         0.5073744
 7874.000         0.5072915
 7875.000         0.5071846
 7876.000         0.5070516
 7877.000         0.5068904
 7878.000         0.5066984
 7879.000         0.5064731
 7880.000         0.5062114
 7881.000         0.5059115
 7882.000         0.5055777
 7883.000         0.5052151
 7884.000         0.5048290
 7885.000         0.5044241
 7886.000         0.5040052
 7887.000         0.5035769
 7888.000         0.5031437
 7889.000         0.5027100
 7890.000         0.5022803
 7891.000         0.5018588
 7892.000         0.5014484
 7893.000         0.5010521
 7894.000         0.5006728
 7895.000         0.5003135
 7896.000         0.4999774
 7897.000         0.4996680
 7898.000         0.4993889
 7899.000         0.4991438
 7900.000         0.4989369
 7901.000         0.4987708
 7902.000         0.4986416
 7903.000         0.4985437
 7904.000         0.4984719
 7905.000         0.4984213
 7906.000         0.4983869
 7907.000         0.4983640
 7908.000         0.4983478
 7909.000         0.4983337
 7910.000         0.4983168
 7911.000         0.4982934
 7912.000         0.4982633
 7913.000         0.4982272
 7914.000         0.4981858
 7915.000         0.4981396
 7916.000         0.4980891
 7917.000         0.4980344
 7918.000         0.4979760
 7919.000         0.4979139
 7920.000         0.4978483
 7921.000         0.4977796
 7922.000         0.4977096
 7923.000         0.4976407
 7924.000         0.4975750
 7925.000         0.4975149
 7926.000         0.4974627
 7927.000         0.4974207
 7928.000         0.4973914
 7929.000         0.4973774
 7930.000         0.4973816
 7931.000         0.4974052
 7932.000         0.4974439
 7933.000         0.4974919
 7934.000         0.4975436
 7935.000         0.4975933
 7936.000         0.4976354
 7937.000         0.4976645
 7938.000         0.4976748
 7939.000         0.4976605
 7940.000         0.4976158
 7941.000         0.4975363
 7942.000         0.4974245
 7943.000         0.4972843
 7944.000         0.4971197
 7945.000         0.4969343
 7946.000         0.4967316
 7947.000         0.4965150
 7948.000         0.4962879
 7949.000         0.4960536
 7950.000         0.4958153
 7951.000         0.4955753
 7952.000         0.4953313
 7953.000         0.4950803
 7954.000         0.4948189
 7955.000         0.4945439
 7956.000         0.4942519
 7957.000         0.4939394
 7958.000         0.4936029
 7959.000         0.4932386
 7960.000         0.4928425
 7961.000         0.4924128
 7962.000         0.4919573
 7963.000         0.4914862
 7964.000         0.4910094
 7965.000         0.4905368
 7966.000         0.4900783
 7967.000         0.4896440
 7968.000         0.4892442
 7969.000         0.4888897
 7970.000         0.4885913
 7971.000         0.4883567
 7972.000         0.4881778
 7973.000         0.4880427
 7974.000         0.4879404
 7975.000         0.4878598
 7976.000         0.4877905
 7977.000         0.4877219
 7978.000         0.4876434
 7979.000         0.4875444
 7980.000         0.4874141
 7981.000         0.4872442
 7982.000         0.4870375
 7983.000         0.4867992
 7984.000         0.4865343
 7985.000         0.4862473
 7986.000         0.4859425
 7987.000         0.4856238
 7988.000         0.4852953
 7989.000         0.4849605
 7990.000         0.4846231
 7991.000         0.4842867
 7992.000         0.4839554
 7993.000         0.4836334
 7994.000         0.4833250
 7995.000         0.4830346
 7996.000         0.4827667
 7997.000         0.4825260
 7998.000         0.4823174
 7999.000         0.4821462
 8000.000         0.4820178
 8001.000         0.4819354
 8002.000         0.4818911
 8003.000         0.4818743
 8004.000         0.4818750
 8005.000         0.4818833
 8006.000         0.4818891
 8007.000         0.4818827
 8008.000         0.4818541
 8009.000         0.4817932
 8010.000         0.4816895
 8011.000         0.4815350
 8012.000         0.4813315
 8013.000         0.4810832
 8014.000         0.4807938
 8015.000         0.4804667
 8016.000         0.4801051
 8017.000         0.4797117
 8018.000         0.4792893
 8019.000         0.4788402
 8020.000         0.4783668
 8021.000         0.4778717
 8022.000         0.4773595
 8023.000         0.4768352
 8024.000         0.4763038
 8025.000         0.4757703
 8026.000         0.4752398
 8027.000         0.4747174
 8028.000         0.4742082
 8029.000         0.4737178
 8030.000         0.4732517
 8031.000         0.4728142
 8032.000         0.4724039
 8033.000         0.4720180
 8034.000         0.4716540
 8035.000         0.4713097
 8036.000         0.4709829
 8037.000         0.4706717
 8038.000         0.4703743
 8039.000         0.4700888
 8040.000         0.4698134
 8041.000         0.4695468
 8042.000         0.4692886
 8043.000         0.4690387
 8044.000         0.4687970
 8045.000         0.4685634
 8046.000         0.4683377
 8047.000         0.4681197
 8048.000         0.4679092
 8049.000         0.4677059
 8050.000         0.4675095
 8051.000         0.4673200
 8052.000         0.4671388
 8053.000         0.4669678
 8054.000         0.4668087
 8055.000         0.4666634
 8056.000         0.4665335
 8057.000         0.4664209
 8058.000         0.4663274
 8059.000         0.4662548
 8060.000         0.4662052
 8061.000         0.4661792
 8062.000         0.4661728
 8063.000         0.4661806
 8064.000         0.4661975
 8065.000         0.4662181
 8066.000         0.4662373
 8067.000         0.4662496
 8068.000         0.4662497
 8069.000         0.4662320
 8070.000         0.4661908
 8071.000         0.4661221
 8072.000         0.4660285
 8073.000         0.4659144
 8074.000         0.4657841
 8075.000         0.4656418
 8076.000         0.4654917
 8077.000         0.4653382
 8078.000         0.4651857
 8079.000         0.4650390
 8080.000         0.4649031
 8081.000         0.4647809
 8082.000         0.4646664
 8083.000         0.4645513
 8084.000         0.4644279
 8085.000         0.4642884
 8086.000         0.4641251
 8087.000         0.4639304
 8088.000         0.4636963
 8089.000         0.4634149
 8090.000         0.4630778
 8091.000         0.4626795
 8092.000         0.4622279
 8093.000         0.4617333
 8094.000         0.4612059
 8095.000         0.4606555
 8096.000         0.4600916
 8097.000         0.4595235
 8098.000         0.4589606
 8099.000         0.4584118
 8100.000         0.4578867
 8101.000         0.4573927
 8102.000         0.4569315
 8103.000         0.4565028
 8104.000         0.4561070
 8105.000         0.4557444
 8106.000         0.4554158
 8107.000         0.4551221
 8108.000         0.4548644
 8109.000         0.4546442
 8110.000         0.4544631
 8111.000         0.4543216
 8112.000         0.4542142
 8113.000         0.4541341
 8114.000         0.4540748
 8115.000         0.4540297
 8116.000         0.4539923
 8117.000         0.4539562
 8118.000         0.4539148
 8119.000         0.4538613
 8120.000         0.4537887
 8121.000         0.4536918
 8122.000         0.4535738
 8123.000         0.4534401
 8124.000         0.4532953
 8125.000         0.4531441
 8126.000         0.4529911
 8127.000         0.4528407
 8128.000         0.4526971
 8129.000         0.4525650
 8130.000         0.4524487
 8131.000         0.4523516
 8132.000         0.4522715
 8133.000         0.4522055
 8134.000         0.4521502
 8135.000         0.4521030
 8136.000         0.4520610
 8137.000         0.4520216
 8138.000         0.4519824
 8139.000         0.4519407
 8140.000         0.4518944
 8141.000         0.4518411
 8142.000         0.4517780
 8143.000         0.4517024
 8144.000         0.4516113
 8145.000         0.4515020
 8146.000         0.4513716
 8147.000         0.4512169
 8148.000         0.4510350
 8149.000         0.4508224
 8150.000         0.4505755
 8151.000         0.4502923
 8152.000         0.4499772
 8153.000         0.4496360
 8154.000         0.4492744
 8155.000         0.4488979
 8156.000         0.4485118
 8157.000         0.4481215
 8158.000         0.4477322
 8159.000         0.4473492
 8160.000         0.4469778
 8161.000         0.4466229
 8162.000         0.4462866
 8163.000         0.4459703
 8164.000         0.4456760
 8165.000         0.4454055
 8166.000         0.4451611
 8167.000         0.4449453
 8168.000         0.4447609
 8169.000         0.4446110
 8170.000         0.4444989
 8171.000         0.4444262
 8172.000         0.4443851
 8173.000         0.4443661
 8174.000         0.4443597
 8175.000         0.4443566
 8176.000         0.4443475
 8177.000         0.4443233
 8178.000         0.4442745
 8179.000         0.4441914
 8180.000         0.4440640
 8181.000         0.4438851
 8182.000         0.4436595
 8183.000         0.4433946
 8184.000         0.4430974
 8185.000         0.4427745
 8186.000         0.4424323
 8187.000         0.4420767
 8188.000         0.4417136
 8189.000         0.4413488
 8190.000         0.4409879
 8191.000         0.4406357
 8192.000         0.4402942
 8193.000         0.4399646
 8194.000         0.4396482
 8195.000         0.4393463
 8196.000         0.4390602
 8197.000         0.4387915
 8198.000         0.4385417
 8199.000         0.4383125
 8200.000         0.4381056
 8201.000         0.4379218
 8202.000         0.4377581
 8203.000         0.4376104
 8204.000         0.4374745
 8205.000         0.4373467
 8206.000         0.4372230
 8207.000         0.4370994
 8208.000         0.4369721
 8209.000         0.4368370
 8210.000         0.4366901
 8211.000         0.4365286
 8212.000         0.4363554
 8213.000         0.4361745
 8214.000         0.4359901
 8215.000         0.4358063
 8216.000         0.4356273
 8217.000         0.4354573
 8218.000         0.4353008
 8219.000         0.4351624
 8220.000         0.4350471
 8221.000         0.4349577
 8222.000         0.4348883
 8223.000         0.4348307
 8224.000         0.4347770
 8225.000         0.4347197
 8226.000         0.4346511
 8227.000         0.4345636
 8228.000         0.4344498
 8229.000         0.4343017
 8230.000         0.4341115
 8231.000         0.4338733
 8232.000         0.4335899
 8233.000         0.4332664
 8234.000         0.4329073
 8235.000         0.4325170
 8236.000         0.4320996
 8237.000         0.4316592
 8238.000         0.4311997
 8239.000         0.4307247
 8240.000         0.4302381
 8241.000         0.4297430
 8242.000         0.4292407
 8243.000         0.4287321
 8244.000         0.4282180
 8245.000         0.4276992
 8246.000         0.4271766
 8247.000         0.4266508
 8248.000         0.4261228
 8249.000         0.4255930
 8250.000         0.4250623
 8251.000         0.4245322
 8252.000         0.4240098
 8253.000         0.4235032
 8254.000         0.4230204
 8255.000         0.4225697
 8256.000         0.4221592
 8257.000         0.4217971
 8258.000         0.4214921
 8259.000         0.4212528
 8260.000         0.4210884
 8261.000         0.4210047
 8262.000         0.4209939
 8263.000         0.4210447
 8264.000         0.4211465
 8265.000         0.4212887
 8266.000         0.4214609
 8267.000         0.4216529
 8268.000         0.4218544
 8269.000         0.4220550
 8270.000         0.4222444
 8271.000         0.4224137
 8272.000         0.4225606
 8273.000         0.4226847
 8274.000         0.4227851
 8275.000         0.4228609
 8276.000         0.4229110
 8277.000         0.4229340
 8278.000         0.4229285
 8279.000         0.4228929
 8280.000         0.4228258
 8281.000         0.4227264
 8282.000         0.4225988
 8283.000         0.4224480
 8284.000         0.4222790
 8285.000         0.4220970
 8286.000         0.4219069
 8287.000         0.4217140
 8288.000         0.4215235
 8289.000         0.4213407
 8290.000         0.4211714
 8291.000         0.4210195
 8292.000         0.4208820
 8293.000         0.4207544
 8294.000         0.4206323
 8295.000         0.4205114
 8296.000         0.4203875
 8297.000         0.4202565
 8298.000         0.4201143
 8299.000         0.4199565
 8300.000         0.4197788
 8301.000         0.4195784
 8302.000         0.4193588
 8303.000         0.4191253
 8304.000         0.4188828
 8305.000         0.4186362
 8306.000         0.4183901
 8307.000         0.4181495
 8308.000         0.4179189
 8309.000         0.4177033
 8310.000         0.4175076
 8311.000         0.4173351
 8312.000         0.4171825
 8313.000         0.4170450
 8314.000         0.4169178
 8315.000         0.4167962
 8316.000         0.4166757
 8317.000         0.4165514
 8318.000         0.4164185
 8319.000         0.4162722
 8320.000         0.4161072
 8321.000         0.4159202
 8322.000         0.4157152
 8323.000         0.4154983
 8324.000         0.4152752
 8325.000         0.4150516
 8326.000         0.4148329
 8327.000         0.4146250
 8328.000         0.4144335
 8329.000         0.4142645
 8330.000         0.4141242
 8331.000         0.4140162
 8332.000         0.4139332
 8333.000         0.4138654
 8334.000         0.4138032
 8335.000         0.4137372
 8336.000         0.4136580
 8337.000         0.4135565
 8338.000         0.4134233
 8339.000         0.4132491
 8340.000         0.4130242
 8341.000         0.4127416
 8342.000         0.4124044
 8343.000         0.4120182
 8344.000         0.4115881
 8345.000         0.4111192
 8346.000         0.4106163
 8347.000         0.4100840
 8348.000         0.4095266
 8349.000         0.4089486
 8350.000         0.4083543
 8351.000         0.4077470
 8352.000         0.4071277
 8353.000         0.4064963
 8354.000         0.4058530
 8355.000         0.4051978
 8356.000         0.4045307
 8357.000         0.4038517
 8358.000         0.4031607
 8359.000         0.4024576
 8360.000         0.4017423
 8361.000         0.4010148
 8362.000         0.4002775
 8363.000         0.3995327
 8364.000         0.3987831
 8365.000         0.3980311
 8366.000         0.3972789
 8367.000         0.3965291
 8368.000         0.3957839
 8369.000         0.3950457
 8370.000         0.3943169
 8371.000         0.3935999
 8372.000         0.3928970
 8373.000         0.3922106
 8374.000         0.3915431
 8375.000         0.3908972
 8376.000         0.3902755
 8377.000         0.3896807
 8378.000         0.3891159
 8379.000         0.3885841
 8380.000         0.3880887
 8381.000         0.3876316
 8382.000         0.3872088
 8383.000         0.3868152
 8384.000         0.3864455
 8385.000         0.3860948
 8386.000         0.3857583
 8387.000         0.3854309
 8388.000         0.3851079
 8389.000         0.3847842
 8390.000         0.3844548
 8391.000         0.3841161
 8392.000         0.3837708
 8393.000         0.3834234
 8394.000         0.3830779
 8395.000         0.3827384
 8396.000         0.3824087
 8397.000         0.3820928
 8398.000         0.3817945
 8399.000         0.3815178
 8400.000         0.3812665
 8401.000         0.3810437
 8402.000         0.3808478
 8403.000         0.3806762
 8404.000         0.3805265
 8405.000         0.3803963
 8406.000         0.3802833
 8407.000         0.3801853
 8408.000         0.3801001
 8409.000         0.3800254
 8410.000         0.3799591
 8411.000         0.3798998
 8412.000         0.3798499
 8413.000         0.3798127
 8414.000         0.3797917
 8415.000         0.3797902
 8416.000         0.3798115
 8417.000         0.3798594
 8418.000         0.3799374
 8419.000         0.3800495
 8420.000         0.3801997
 8421.000         0.3803906
 8422.000         0.3806172
 8423.000         0.3808730
 8424.000         0.3811518
 8425.000         0.3814475
 8426.000         0.3817539
 8427.000         0.3820651
 8428.000         0.3823753
 8429.000         0.3826786
 8430.000         0.3829690
 8431.000         0.3832411
 8432.000         0.3834915
 8433.000         0.3837172
 8434.000         0.3839151
 8435.000         0.3840820
 8436.000         0.3842145
 8437.000         0.3843092
 8438.000         0.3843625
 8439.000         0.3843705
 8440.000         0.3843293
 8441.000         0.3842363
 8442.000         0.3840947
 8443.000         0.3839091
 8444.000         0.3836838
 8445.000         0.3834230
 8446.000         0.3831308
 8447.000         0.3828113
 8448.000         0.3824685
 8449.000         0.3821063
 8450.000         0.3817285
 8451.000         0.3813384
 8452.000         0.3809366
 8453.000         0.3805228
 8454.000         0.3800972
 8455.000         0.3796595
 8456.000         0.3792098
 8457.000         0.3787480
 8458.000         0.3782740
 8459.000         0.3777876
 8460.000         0.3772889
 8461.000         0.3767775
 8462.000         0.3762535
 8463.000         0.3757168
 8464.000         0.3751673
 8465.000         0.3746047
 8466.000         0.3740287
 8467.000         0.3734391
 8468.000         0.3728355
 8469.000         0.3722173
 8470.000         0.3715840
 8471.000         0.3709354
 8472.000         0.3702721
 8473.000         0.3695951
 8474.000         0.3689053
 8475.000         0.3682036
 8476.000         0.3674908
 8477.000         0.3667676
 8478.000         0.3660348
 8479.000         0.3652930
 8480.000         0.3645430
 8481.000         0.3637858
 8482.000         0.3630236
 8483.000         0.3622589
 8484.000         0.3614944
 8485.000         0.3607325
 8486.000         0.3599758
 8487.000         0.3592268
 8488.000         0.3584881
 8489.000         0.3577622
 8490.000         0.3570516
 8491.000         0.3563593
 8492.000         0.3556911
 8493.000         0.3550533
 8494.000         0.3544523
 8495.000         0.3538943
 8496.000         0.3533858
 8497.000         0.3529331
 8498.000         0.3525428
 8499.000         0.3522215
 8500.000         0.3519762
 8501.000         0.3518113
 8502.000         0.3517229
 8503.000         0.3517048
 8504.000         0.3517509
 8505.000         0.3518556
 8506.000         0.3520134
 8507.000         0.3522191
 8508.000         0.3524675
 8509.000         0.3527537
 8510.000         0.3530732
 8511.000         0.3534210
 8512.000         0.3537906
 8513.000         0.3541754
 8514.000         0.3545690
 8515.000         0.3549647
 8516.000         0.3553563
 8517.000         0.3557373
 8518.000         0.3561015
 8519.000         0.3564425
 8520.000         0.3567538
 8521.000         0.3570307
 8522.000         0.3572742
 8523.000         0.3574870
 8524.000         0.3576717
 8525.000         0.3578308
 8526.000         0.3579666
 8527.000         0.3580816
 8528.000         0.3581780
 8529.000         0.3582583
 8530.000         0.3583247
 8531.000         0.3583792
 8532.000         0.3584220
 8533.000         0.3584532
 8534.000         0.3584726
 8535.000         0.3584803
 8536.000         0.3584760
 8537.000         0.3584595
 8538.000         0.3584305
 8539.000         0.3583886
 8540.000         0.3583333
 8541.000         0.3582643
 8542.000         0.3581831
 8543.000         0.3580911
 8544.000         0.3579900
 8545.000         0.3578811
 8546.000         0.3577658
 8547.000         0.3576453
 8548.000         0.3575210
 8549.000         0.3573941
 8550.000         0.3572657
 8551.000         0.3571369
 8552.000         0.3570080
 8553.000         0.3568792
 8554.000         0.3567506
 8555.000         0.3566223
 8556.000         0.3564947
 8557.000         0.3563680
 8558.000         0.3562426
 8559.000         0.3561189
 8560.000         0.3559974
 8561.000         0.3558780
 8562.000         0.3557583
 8563.000         0.3556352
 8564.000         0.3555058
 8565.000         0.3553672
 8566.000         0.3552164
 8567.000         0.3550503
 8568.000         0.3548660
 8569.000         0.3546603
 8570.000         0.3544300
 8571.000         0.3541725
 8572.000         0.3538886
 8573.000         0.3535795
 8574.000         0.3532466
 8575.000         0.3528908
 8576.000         0.3525132
 8577.000         0.3521148
 8578.000         0.3516962
 8579.000         0.3512584
 8580.000         0.3508021
 8581.000         0.3503280
 8582.000         0.3498369
 8583.000         0.3493297
 8584.000         0.3488073
 8585.000         0.3482704
 8586.000         0.3477198
 8587.000         0.3471561
 8588.000         0.3465800
 8589.000         0.3459919
 8590.000         0.3453924
 8591.000         0.3447827
 8592.000         0.3441683
 8593.000         0.3435557
 8594.000         0.3429512
 8595.000         0.3423612
 8596.000         0.3417920
 8597.000         0.3412500
 8598.000         0.3407418
 8599.000         0.3402741
 8600.000         0.3398537
 8601.000         0.3394858
 8602.000         0.3391673
 8603.000         0.3388936
 8604.000         0.3386600
 8605.000         0.3384624
 8606.000         0.3382968
 8607.000         0.3381595
 8608.000         0.3380469
 8609.000         0.3379556
 8610.000         0.3378825
 8611.000         0.3378240
 8612.000         0.3377753
 8613.000         0.3377315
 8614.000         0.3376876
 8615.000         0.3376386
 8616.000         0.3375794
 8617.000         0.3375050
 8618.000         0.3374101
 8619.000         0.3372894
 8620.000         0.3371373
 8621.000         0.3369498
 8622.000         0.3367298
 8623.000         0.3364815
 8624.000         0.3362089
 8625.000         0.3359159
 8626.000         0.3356063
 8627.000         0.3352836
 8628.000         0.3349514
 8629.000         0.3346129
 8630.000         0.3342718
 8631.000         0.3339307
 8632.000         0.3335902
 8633.000         0.3332502
 8634.000         0.3329107
 8635.000         0.3325717
 8636.000         0.3322334
 8637.000         0.3318956
 8638.000         0.3315585
 8639.000         0.3312222
 8640.000         0.3308868
 8641.000         0.3305524
 8642.000         0.3302194
 8643.000         0.3298883
 8644.000         0.3295597
 8645.000         0.3292340
 8646.000         0.3289118
 8647.000         0.3285936
 8648.000         0.3282798
 8649.000         0.3279712
 8650.000         0.3276681
 8651.000         0.3273712
 8652.000         0.3270807
 8653.000         0.3267972
 8654.000         0.3265209
 8655.000         0.3262522
 8656.000         0.3259916
 8657.000         0.3257394
 8658.000         0.3254961
 8659.000         0.3252622
 8660.000         0.3250380
 8661.000         0.3248238
 8662.000         0.3246186
 8663.000         0.3244213
 8664.000         0.3242308
 8665.000         0.3240459
 8666.000         0.3238655
 8667.000         0.3236886
 8668.000         0.3235140
 8669.000         0.3233406
 8670.000         0.3231675
 8671.000         0.3229934
 8672.000         0.3228169
 8673.000         0.3226361
 8674.000         0.3224496
 8675.000         0.3222555
 8676.000         0.3220523
 8677.000         0.3218382
 8678.000         0.3216116
 8679.000         0.3213708
 8680.000         0.3211139
 8681.000         0.3208398
 8682.000         0.3205497
 8683.000         0.3202452
 8684.000         0.3199282
 8685.000         0.3196001
 8686.000         0.3192626
 8687.000         0.3189173
 8688.000         0.3185656
 8689.000         0.3182092
 8690.000         0.3178494
 8691.000         0.3174879
 8692.000         0.3171264
 8693.000         0.3167668
 8694.000         0.3164110
 8695.000         0.3160610
 8696.000         0.3157186
 8697.000         0.3153856
 8698.000         0.3150641
 8699.000         0.3147560
 8700.000         0.3144632
 8701.000         0.3141873
 8702.000         0.3139275
 8703.000         0.3136827
 8704.000         0.3134517
 8705.000         0.3132333
 8706.000         0.3130266
 8707.000         0.3128305
 8708.000         0.3126439
 8709.000         0.3124661
 8710.000         0.3122959
 8711.000         0.3121326
 8712.000         0.3119755
 8713.000         0.3118241
 8714.000         0.3116778
 8715.000         0.3115362
 8716.000         0.3113988
 8717.000         0.3112651
 8718.000         0.3111346
 8719.000         0.3110070
 8720.000         0.3108818
 8721.000         0.3107586
 8722.000         0.3106371
 8723.000         0.3105168
 8724.000         0.3103975
 8725.000         0.3102787
 8726.000         0.3101601
 8727.000         0.3100414
 8728.000         0.3099221
 8729.000         0.3098020
 8730.000         0.3096807
 8731.000         0.3095579
 8732.000         0.3094338
 8733.000         0.3093088
 8734.000         0.3091833
 8735.000         0.3090575
 8736.000         0.3089317
 8737.000         0.3088065
 8738.000         0.3086819
 8739.000         0.3085585
 8740.000         0.3084365
 8741.000         0.3083161
 8742.000         0.3081970
 8743.000         0.3080784
 8744.000         0.3079597
 8745.000         0.3078405
 8746.000         0.3077200
 8747.000         0.3075977
 8748.000         0.3074732
 8749.000         0.3073457
 8750.000         0.3072147
 8751.000         0.3070797
 8752.000         0.3069400
 8753.000         0.3067949
 8754.000         0.3066437
 8755.000         0.3064857
 8756.000         0.3063202
 8757.000         0.3061464
 8758.000         0.3059637
 8759.000         0.3057712
 8760.000         0.3055681
 8761.000         0.3053539
 8762.000         0.3051290
 8763.000         0.3048943
 8764.000         0.3046504
 8765.000         0.3043979
 8766.000         0.3041376
 8767.000         0.3038700
 8768.000         0.3035958
 8769.000         0.3033156
 8770.000         0.3030298
 8771.000         0.3027391
 8772.000         0.3024439
 8773.000         0.3021449
 8774.000         0.3018425
 8775.000         0.3015372
 8776.000         0.3012296
 8777.000         0.3009202
 8778.000         0.3006094
 8779.000         0.3002977
 8780.000         0.2999856
 8781.000         0.2996736
 8782.000         0.2993619
 8783.000         0.2990508
 8784.000         0.2987405
 8785.000         0.2984313
 8786.000         0.2981235
 8787.000         0.2978172
 8788.000         0.2975127
 8789.000         0.2972104
 8790.000         0.2969106
 8791.000         0.2966133
 8792.000         0.2963190
 8793.000         0.2960277
 8794.000         0.2957396
 8795.000         0.2954551
 8796.000         0.2951742
 8797.000         0.2948973
 8798.000         0.2946245
 8799.000         0.2943561
 8800.000         0.2940923
 8801.000         0.2938332
 8802.000         0.2935785
 8803.000         0.2933275
 8804.000         0.2930799
 8805.000         0.2928350
 8806.000         0.2925923
 8807.000         0.2923514
 8808.000         0.2921118
 8809.000         0.2918730
 8810.000         0.2916345
 8811.000         0.2913958
 8812.000         0.2911561
 8813.000         0.2909146
 8814.000         0.2906705
 8815.000         0.2904229
 8816.000         0.2901711
 8817.000         0.2899142
 8818.000         0.2896513
 8819.000         0.2893816
 8820.000         0.2891043
 8821.000         0.2888187
 8822.000         0.2885254
 8823.000         0.2882251
 8824.000         0.2879184
 8825.000         0.2876061
 8826.000         0.2872888
 8827.000         0.2869673
 8828.000         0.2866421
 8829.000         0.2863139
 8830.000         0.2859832
 8831.000         0.2856507
 8832.000         0.2853172
 8833.000         0.2849836
 8834.000         0.2846506
 8835.000         0.2843190
 8836.000         0.2839897
 8837.000         0.2836635
 8838.000         0.2833412
 8839.000         0.2830235
 8840.000         0.2827114
 8841.000         0.2824054
 8842.000         0.2821052
 8843.000         0.2818103
 8844.000         0.2815202
 8845.000         0.2812344
 8846.000         0.2809525
 8847.000         0.2806739
 8848.000         0.2803983
 8849.000         0.2801251
 8850.000         0.2798541
 8851.000         0.2795847
 8852.000         0.2793162
 8853.000         0.2790480
 8854.000         0.2787793
 8855.000         0.2785094
 8856.000         0.2782375
 8857.000         0.2779631
 8858.000         0.2776852
 8859.000         0.2774033
 8860.000         0.2771166
 8861.000         0.2768246
 8862.000         0.2765280
 8863.000         0.2762275
 8864.000         0.2759242
 8865.000         0.2756189
 8866.000         0.2753124
 8867.000         0.2750055
 8868.000         0.2746992
 8869.000         0.2743942
 8870.000         0.2740913
 8871.000         0.2737915
 8872.000         0.2734952
 8873.000         0.2732030
 8874.000         0.2729154
 8875.000         0.2726328
 8876.000         0.2723559
 8877.000         0.2720851
 8878.000         0.2718212
 8879.000         0.2715645
 8880.000         0.2713158
 8881.000         0.2710754
 8882.000         0.2708427
 8883.000         0.2706168
 8884.000         0.2703969
 8885.000         0.2701823
 8886.000         0.2699721
 8887.000         0.2697656
 8888.000         0.2695621
 8889.000         0.2693606
 8890.000         0.2691606
 8891.000         0.2689612
 8892.000         0.2687618
 8893.000         0.2685613
 8894.000         0.2683592
 8895.000         0.2681546
 8896.000         0.2679467
 8897.000         0.2677347
 8898.000         0.2675178
 8899.000         0.2672953
 8900.000         0.2670663
 8901.000         0.2668302
 8902.000         0.2665875
 8903.000         0.2663388
 8904.000         0.2660846
 8905.000         0.2658255
 8906.000         0.2655621
 8907.000         0.2652950
 8908.000         0.2650247
 8909.000         0.2647518
 8910.000         0.2644766
 8911.000         0.2641999
 8912.000         0.2639225
 8913.000         0.2636451
 8914.000         0.2633685
 8915.000         0.2630937
 8916.000         0.2628215
 8917.000         0.2625526
 8918.000         0.2622880
 8919.000         0.2620285
 8920.000         0.2617748
 8921.000         0.2615277
 8922.000         0.2612866
 8923.000         0.2610508
 8924.000         0.2608196
 8925.000         0.2605922
 8926.000         0.2603680
 8927.000         0.2601463
 8928.000         0.2599263
 8929.000         0.2597076
 8930.000         0.2594893
 8931.000         0.2592709
 8932.000         0.2590517
 8933.000         0.2588311
 8934.000         0.2586085
 8935.000         0.2583831
 8936.000         0.2581545
 8937.000         0.2579218
 8938.000         0.2576846
 8939.000         0.2574421
 8940.000         0.2571937
 8941.000         0.2569388
 8942.000         0.2566780
 8943.000         0.2564117
 8944.000         0.2561406
 8945.000         0.2558653
 8946.000         0.2555863
 8947.000         0.2553041
 8948.000         0.2550193
 8949.000         0.2547324
 8950.000         0.2544439
 8951.000         0.2541543
 8952.000         0.2538642
 8953.000         0.2535743
 8954.000         0.2532851
 8955.000         0.2529974
 8956.000         0.2527116
 8957.000         0.2524284
 8958.000         0.2521484
 8959.000         0.2518723
 8960.000         0.2516007
 8961.000         0.2513340
 8962.000         0.2510722
 8963.000         0.2508149
 8964.000         0.2505620
 8965.000         0.2503131
 8966.000         0.2500682
 8967.000         0.2498269
 8968.000         0.2495891
 8969.000         0.2493546
 8970.000         0.2491232
 8971.000         0.2488947
 8972.000         0.2486689
 8973.000         0.2484457
 8974.000         0.2482250
 8975.000         0.2480064
 8976.000         0.2477899
 8977.000         0.2475754
 8978.000         0.2473626
 8979.000         0.2471515
 8980.000         0.2469419
 8981.000         0.2467337
 8982.000         0.2465264
 8983.000         0.2463195
 8984.000         0.2461126
 8985.000         0.2459053
 8986.000         0.2456970
 8987.000         0.2454874
 8988.000         0.2452759
 8989.000         0.2450621
 8990.000         0.2448455
 8991.000         0.2446256
 8992.000         0.2444021
 8993.000         0.2441746
 8994.000         0.2439425
 8995.000         0.2437056
 8996.000         0.2434633
 8997.000         0.2432152
 8998.000         0.2429608
 8999.000         0.2426998
 9000.000         0.2424315
 9001.000         0.2421557
 9002.000         0.2418731
 9003.000         0.2415846
 9004.000         0.2412910
 9005.000         0.2409931
 9006.000         0.2406918
 9007.000         0.2403879
 9008.000         0.2400822
 9009.000         0.2397754
 9010.000         0.2394685
 9011.000         0.2391622
 9012.000         0.2388573
 9013.000         0.2385544
 9014.000         0.2382544
 9015.000         0.2379581
 9016.000         0.2376662
 9017.000         0.2373795
 9018.000         0.2370988
 9019.000         0.2368248
 9020.000         0.2365586
 9021.000         0.2363004
 9022.000         0.2360499
 9023.000         0.2358061
 9024.000         0.2355683
 9025.000         0.2353356
 9026.000         0.2351072
 9027.000         0.2348824
 9028.000         0.2346604
 9029.000         0.2344405
 9030.000         0.2342219
 9031.000         0.2340038
 9032.000         0.2337857
 9033.000         0.2335668
 9034.000         0.2333465
 9035.000         0.2331241
 9036.000         0.2328991
 9037.000         0.2326706
 9038.000         0.2324382
 9039.000         0.2322009
 9040.000         0.2319582
 9041.000         0.2317096
 9042.000         0.2314554
 9043.000         0.2311960
 9044.000         0.2309318
 9045.000         0.2306634
 9046.000         0.2303911
 9047.000         0.2301153
 9048.000         0.2298365
 9049.000         0.2295551
 9050.000         0.2292713
 9051.000         0.2289857
 9052.000         0.2286986
 9053.000         0.2284104
 9054.000         0.2281215
 9055.000         0.2278324
 9056.000         0.2275434
 9057.000         0.2272549
 9058.000         0.2269674
 9059.000         0.2266812
 9060.000         0.2263968
 9061.000         0.2261144
 9062.000         0.2258340
 9063.000         0.2255554
 9064.000         0.2252785
 9065.000         0.2250031
 9066.000         0.2247290
 9067.000         0.2244562
 9068.000         0.2241845
 9069.000         0.2239138
 9070.000         0.2236439
 9071.000         0.2233747
 9072.000         0.2231062
 9073.000         0.2228384
 9074.000         0.2225714
 9075.000         0.2223052
 9076.000         0.2220397
 9077.000         0.2217750
 9078.000         0.2215111
 9079.000         0.2212480
 9080.000         0.2209858
 9081.000         0.2207244
 9082.000         0.2204640
 9083.000         0.2202045
 9084.000         0.2199460
 9085.000         0.2196885
 9086.000         0.2194321
 9087.000         0.2191768
 9088.000         0.2189227
 9089.000         0.2186698
 9090.000         0.2184183
 9091.000         0.2181681
 9092.000         0.2179192
 9093.000         0.2176718
 9094.000         0.2174259
 9095.000         0.2171814
 9096.000         0.2169384
 9097.000         0.2166969
 9098.000         0.2164571
 9099.000         0.2162188
 9100.000         0.2159823
 9101.000         0.2157474
 9102.000         0.2155140
 9103.000         0.2152821
 9104.000         0.2150514
 9105.000         0.2148219
 9106.000         0.2145934
 9107.000         0.2143658
 9108.000         0.2141390
 9109.000         0.2139130
 9110.000         0.2136877
 9111.000         0.2134629
 9112.000         0.2132382
 9113.000         0.2130128
 9114.000         0.2127862
 9115.000         0.2125578
 9116.000         0.2123269
 9117.000         0.2120931
 9118.000         0.2118556
 9119.000         0.2116140
 9120.000         0.2113676
 9121.000         0.2111161
 9122.000         0.2108597
 9123.000         0.2105990
 9124.000         0.2103345
 9125.000         0.2100667
 9126.000         0.2097960
 9127.000         0.2095230
 9128.000         0.2092481
 9129.000         0.2089717
 9130.000         0.2086943
 9131.000         0.2084164
 9132.000         0.2081385
 9133.000         0.2078609
 9134.000         0.2075841
 9135.000         0.2073085
 9136.000         0.2070345
 9137.000         0.2067627
 9138.000         0.2064935
 9139.000         0.2062272
 9140.000         0.2059643
 9141.000         0.2057052
 9142.000         0.2054498
 9143.000         0.2051977
 9144.000         0.2049488
 9145.000         0.2047027
 9146.000         0.2044593
 9147.000         0.2042184
 9148.000         0.2039796
 9149.000         0.2037429
 9150.000         0.2035079
 9151.000         0.2032746
 9152.000         0.2030425
 9153.000         0.2028117
 9154.000         0.2025817
 9155.000         0.2023525
 9156.000         0.2021237
 9157.000         0.2018953
 9158.000         0.2016669
 9159.000         0.2014383
 9160.000         0.2012094
 9161.000         0.2009800
 9162.000         0.2007500
 9163.000         0.2005193
 9164.000         0.2002879
 9165.000         0.2000557
 9166.000         0.1998227
 9167.000         0.1995888
 9168.000         0.1993538
 9169.000         0.1991179
 9170.000         0.1988807
 9171.000         0.1986424
 9172.000         0.1984030
 9173.000         0.1981624
 9174.000         0.1979207
 9175.000         0.1976781
 9176.000         0.1974344
 9177.000         0.1971898
 9178.000         0.1969443
 9179.000         0.1966979
 9180.000         0.1964506
 9181.000         0.1962026
 9182.000         0.1959537
 9183.000         0.1957040
 9184.000         0.1954535
 9185.000         0.1952022
 9186.000         0.1949500
 9187.000         0.1946970
 9188.000         0.1944432
 9189.000         0.1941886
 9190.000         0.1939331
 9191.000         0.1936768
 9192.000         0.1934196
 9193.000         0.1931616
 9194.000         0.1929029
 9195.000         0.1926433
 9196.000         0.1923830
 9197.000         0.1921218
 9198.000         0.1918599
 9199.000         0.1915973
 9200.000         0.1913338
 9201.000         0.1910696
 9202.000         0.1908048
 9203.000         0.1905399
 9204.000         0.1902750
 9205.000         0.1900105
 9206.000         0.1897466
 9207.000         0.1894837
 9208.000         0.1892220
 9209.000         0.1889618
 9210.000         0.1887035
 9211.000         0.1884472
 9212.000         0.1881932
 9213.000         0.1879416
 9214.000         0.1876927
 9215.000         0.1874465
 9216.000         0.1872033
 9217.000         0.1869633
 9218.000         0.1867267
 9219.000         0.1864937
 9220.000         0.1862646
 9221.000         0.1860393
 9222.000         0.1858176
 9223.000         0.1855987
 9224.000         0.1853820
 9225.000         0.1851671
 9226.000         0.1849532
 9227.000         0.1847400
 9228.000         0.1845267
 9229.000         0.1843128
 9230.000         0.1840978
 9231.000         0.1838810
 9232.000         0.1836623
 9233.000         0.1834411
 9234.000         0.1832171
 9235.000         0.1829901
 9236.000         0.1827596
 9237.000         0.1825253
 9238.000         0.1822868
 9239.000         0.1820438
 9240.000         0.1817958
 9241.000         0.1815426
 9242.000         0.1812846
 9243.000         0.1810223
 9244.000         0.1807562
 9245.000         0.1804869
 9246.000         0.1802148
 9247.000         0.1799404
 9248.000         0.1796643
 9249.000         0.1793868
 9250.000         0.1791085
 9251.000         0.1788298
 9252.000         0.1785513
 9253.000         0.1782736
 9254.000         0.1779973
 9255.000         0.1777230
 9256.000         0.1774513
 9257.000         0.1771828
 9258.000         0.1769181
 9259.000         0.1766578
 9260.000         0.1764025
 9261.000         0.1761527
 9262.000         0.1759080
 9263.000         0.1756681
 9264.000         0.1754325
 9265.000         0.1752007
 9266.000         0.1749723
 9267.000         0.1747470
 9268.000         0.1745243
 9269.000         0.1743040
 9270.000         0.1740855
 9271.000         0.1738685
 9272.000         0.1736527
 9273.000         0.1734378
 9274.000         0.1732232
 9275.000         0.1730088
 9276.000         0.1727940
 9277.000         0.1725787
 9278.000         0.1723624
 9279.000         0.1721448
 9280.000         0.1719255
 9281.000         0.1717043
 9282.000         0.1714814
 9283.000         0.1712571
 9284.000         0.1710317
 9285.000         0.1708056
 9286.000         0.1705790
 9287.000         0.1703523
 9288.000         0.1701259
 9289.000         0.1699000
 9290.000         0.1696750
 9291.000         0.1694513
 9292.000         0.1692286
 9293.000         0.1690066
 9294.000         0.1687851
 9295.000         0.1685637
 9296.000         0.1683422
 9297.000         0.1681204
 9298.000         0.1678980
 9299.000         0.1676748
 9300.000         0.1674505
 9301.000         0.1672249
 9302.000         0.1669982
 9303.000         0.1667706
 9304.000         0.1665421
 9305.000         0.1663131
 9306.000         0.1660837
 9307.000         0.1658540
 9308.000         0.1656243
 9309.000         0.1653946
 9310.000         0.1651652
 9311.000         0.1649362
 9312.000         0.1647078
 9313.000         0.1644801
 9314.000         0.1642533
 9315.000         0.1640274
 9316.000         0.1638028
 9317.000         0.1635795
 9318.000         0.1633577
 9319.000         0.1631375
 9320.000         0.1629191
 9321.000         0.1627027
 9322.000         0.1624880
 9323.000         0.1622748
 9324.000         0.1620629
 9325.000         0.1618520
 9326.000         0.1616420
 9327.000         0.1614326
 9328.000         0.1612236
 9329.000         0.1610148
 9330.000         0.1608060
 9331.000         0.1605969
 9332.000         0.1603875
 9333.000         0.1601774
 9334.000         0.1599666
 9335.000         0.1597548
 9336.000         0.1595419
 9337.000         0.1593278
 9338.000         0.1591121
 9339.000         0.1588947
 9340.000         0.1586755
 9341.000         0.1584543
 9342.000         0.1582312
 9343.000         0.1580065
 9344.000         0.1577804
 9345.000         0.1575531
 9346.000         0.1573247
 9347.000         0.1570956
 9348.000         0.1568657
 9349.000         0.1566355
 9350.000         0.1564050
 9351.000         0.1561744
 9352.000         0.1559440
 9353.000         0.1557139
 9354.000         0.1554844
 9355.000         0.1552557
 9356.000         0.1550279
 9357.000         0.1548014
 9358.000         0.1545762
 9359.000         0.1543528
 9360.000         0.1541311
 9361.000         0.1539115
 9362.000         0.1536937
 9363.000         0.1534775
 9364.000         0.1532626
 9365.000         0.1530488
 9366.000         0.1528358
 9367.000         0.1526235
 9368.000         0.1524116
 9369.000         0.1521999
 9370.000         0.1519881
 9371.000         0.1517761
 9372.000         0.1515636
 9373.000         0.1513504
 9374.000         0.1511365
 9375.000         0.1509215
 9376.000         0.1507054
 9377.000         0.1504879
 9378.000         0.1502688
 9379.000         0.1500481
 9380.000         0.1498253
 9381.000         0.1496005
 9382.000         0.1493736
 9383.000         0.1491448
 9384.000         0.1489139
 9385.000         0.1486812
 9386.000         0.1484465
 9387.000         0.1482100
 9388.000         0.1479718
 9389.000         0.1477317
 9390.000         0.1474899
 9391.000         0.1472463
 9392.000         0.1470011
 9393.000         0.1467541
 9394.000         0.1465054
 9395.000         0.1462551
 9396.000         0.1460031
 9397.000         0.1457494
 9398.000         0.1454941
 9399.000         0.1452370
 9400.000         0.1449782
 9401.000         0.1447178
 9402.000         0.1444559
 9403.000         0.1441931
 9404.000         0.1439297
 9405.000         0.1436660
 9406.000         0.1434024
 9407.000         0.1431393
 9408.000         0.1428770
 9409.000         0.1426158
 9410.000         0.1423562
 9411.000         0.1420985
 9412.000         0.1418430
 9413.000         0.1415900
 9414.000         0.1413398
 9415.000         0.1410928
 9416.000         0.1408494
 9417.000         0.1406098
 9418.000         0.1403744
 9419.000         0.1401436
 9420.000         0.1399178
 9421.000         0.1396972
 9422.000         0.1394813
 9423.000         0.1392697
 9424.000         0.1390617
 9425.000         0.1388569
 9426.000         0.1386548
 9427.000         0.1384547
 9428.000         0.1382563
 9429.000         0.1380590
 9430.000         0.1378623
 9431.000         0.1376658
 9432.000         0.1374694
 9433.000         0.1372729
 9434.000         0.1370765
 9435.000         0.1368801
 9436.000         0.1366836
 9437.000         0.1364871
 9438.000         0.1362905
 9439.000         0.1360939
 9440.000         0.1358972
 9441.000         0.1357006
 9442.000         0.1355039
 9443.000         0.1353071
 9444.000         0.1351100
 9445.000         0.1349125
 9446.000         0.1347147
 9447.000         0.1345164
 9448.000         0.1343176
 9449.000         0.1341183
 9450.000         0.1339184
 9451.000         0.1337180
 9452.000         0.1335170
 9453.000         0.1333154
 9454.000         0.1331135
 9455.000         0.1329111
 9456.000         0.1327084
 9457.000         0.1325055
 9458.000         0.1323023
 9459.000         0.1320989
 9460.000         0.1318954
 9461.000         0.1316918
 9462.000         0.1314882
 9463.000         0.1312847
 9464.000         0.1310811
 9465.000         0.1308777
 9466.000         0.1306744
 9467.000         0.1304712
 9468.000         0.1302682
 9469.000         0.1300654
 9470.000         0.1298629
 9471.000         0.1296607
 9472.000         0.1294589
 9473.000         0.1292575
 9474.000         0.1290567
 9475.000         0.1288567
 9476.000         0.1286574
 9477.000         0.1284590
 9478.000         0.1282616
 9479.000         0.1280653
 9480.000         0.1278702
 9481.000         0.1276764
 9482.000         0.1274838
 9483.000         0.1272921
 9484.000         0.1271013
 9485.000         0.1269110
 9486.000         0.1267213
 9487.000         0.1265318
 9488.000         0.1263425
 9489.000         0.1261532
 9490.000         0.1259637
 9491.000         0.1257739
 9492.000         0.1255836
 9493.000         0.1253928
 9494.000         0.1252013
 9495.000         0.1250091
 9496.000         0.1248160
 9497.000         0.1246219
 9498.000         0.1244268
 9499.000         0.1242304
 9500.000         0.1240327
 9501.000         0.1238336
 9502.000         0.1236332
 9503.000         0.1234314
 9504.000         0.1232285
 9505.000         0.1230245
 9506.000         0.1228194
 9507.000         0.1226133
 9508.000         0.1224064
 9509.000         0.1221986
 9510.000         0.1219900
 9511.000         0.1217807
 9512.000         0.1215708
 9513.000         0.1213602
 9514.000         0.1211491
 9515.000         0.1209375
 9516.000         0.1207254
 9517.000         0.1205129
 9518.000         0.1202999
 9519.000         0.1200867
 9520.000         0.1198731
 9521.000         0.1196593
 9522.000         0.1194452
 9523.000         0.1192311
 9524.000         0.1190168
 9525.000         0.1188027
 9526.000         0.1185886
 9527.000         0.1183747
 9528.000         0.1181611
 9529.000         0.1179477
 9530.000         0.1177348
 9531.000         0.1175224
 9532.000         0.1173105
 9533.000         0.1170992
 9534.000         0.1168885
 9535.000         0.1166785
 9536.000         0.1164692
 9537.000         0.1162607
 9538.000         0.1160531
 9539.000         0.1158465
 9540.000         0.1156408
 9541.000         0.1154361
 9542.000         0.1152324
 9543.000         0.1150296
 9544.000         0.1148276
 9545.000         0.1146265
 9546.000         0.1144260
 9547.000         0.1142262
 9548.000         0.1140270
 9549.000         0.1138283
 9550.000         0.1136301
 9551.000         0.1134324
 9552.000         0.1132350
 9553.000         0.1130379
 9554.000         0.1128411
 9555.000         0.1126444
 9556.000         0.1124478
 9557.000         0.1122513
 9558.000         0.1120547
 9559.000         0.1118580
 9560.000         0.1116611
 9561.000         0.1114640
 9562.000         0.1112667
 9563.000         0.1110690
 9564.000         0.1108709
 9565.000         0.1106723
 9566.000         0.1104733
 9567.000         0.1102737
 9568.000         0.1100735
 9569.000         0.1098726
 9570.000         0.1096710
 9571.000         0.1094685
 9572.000         0.1092652
 9573.000         0.1090610
 9574.000         0.1088558
 9575.000         0.1086496
 9576.000         0.1084423
 9577.000         0.1082337
 9578.000         0.1080240
 9579.000         0.1078129
 9580.000         0.1076004
 9581.000         0.1073865
 9582.000         0.1071713
 9583.000         0.1069551
 9584.000         0.1067380
 9585.000         0.1065204
 9586.000         0.1063023
 9587.000         0.1060841
 9588.000         0.1058658
 9589.000         0.1056477
 9590.000         0.1054300
 9591.000         0.1052129
 9592.000         0.1049967
 9593.000         0.1047814
 9594.000         0.1045673
 9595.000         0.1043547
 9596.000         0.1041438
 9597.000         0.1039347
 9598.000         0.1037277
 9599.000         0.1035230
 9600.000         0.1033209
 9601.000         0.1031214
 9602.000         0.1029245
 9603.000         0.1027298
 9604.000         0.1025372
 9605.000         0.1023464
 9606.000         0.1021571
 9607.000         0.1019692
 9608.000         0.1017825
 9609.000         0.1015967
 9610.000         0.1014116
 9611.000         0.1012271
 9612.000         0.1010428
 9613.000         0.1008586
 9614.000         0.1006741
 9615.000         0.1004892
 9616.000         0.1003035
 9617.000         0.1001168
 9618.000         0.0999289
 9619.000         0.0997395
 9620.000         0.0995484
 9621.000         0.0993553
 9622.000         0.0991606
 9623.000         0.0989648
 9624.000         0.0987682
 9625.000         0.0985713
 9626.000         0.0983746
 9627.000         0.0981784
 9628.000         0.0979833
 9629.000         0.0977896
 9630.000         0.0975979
 9631.000         0.0974085
 9632.000         0.0972213
 9633.000         0.0970360
 9634.000         0.0968525
 9635.000         0.0966706
 9636.000         0.0964901
 9637.000         0.0963107
 9638.000         0.0961323
 9639.000         0.0959548
 9640.000         0.0957779
 9641.000         0.0956016
 9642.000         0.0954257
 9643.000         0.0952503
 9644.000         0.0950752
 9645.000         0.0949004
 9646.000         0.0947259
 9647.000         0.0945517
 9648.000         0.0943776
 9649.000         0.0942036
 9650.000         0.0940298
 9651.000         0.0938560
 9652.000         0.0936820
 9653.000         0.0935077
 9654.000         0.0933330
 9655.000         0.0931576
 9656.000         0.0929814
 9657.000         0.0928042
 9658.000         0.0926258
 9659.000         0.0924461
 9660.000         0.0922648
 9661.000         0.0920819
 9662.000         0.0918974
 9663.000         0.0917116
 9664.000         0.0915244
 9665.000         0.0913360
 9666.000         0.0911466
 9667.000         0.0909563
 9668.000         0.0907652
 9669.000         0.0905733
 9670.000         0.0903809
 9671.000         0.0901880
 9672.000         0.0899946
 9673.000         0.0898010
 9674.000         0.0896072
 9675.000         0.0894133
 9676.000         0.0892194
 9677.000         0.0890256
 9678.000         0.0888319
 9679.000         0.0886385
 9680.000         0.0884454
 9681.000         0.0882528
 9682.000         0.0880605
 9683.000         0.0878686
 9684.000         0.0876770
 9685.000         0.0874855
 9686.000         0.0872943
 9687.000         0.0871031
 9688.000         0.0869120
 9689.000         0.0867209
 9690.000         0.0865298
 9691.000         0.0863386
 9692.000         0.0861472
 9693.000         0.0859557
 9694.000         0.0857640
 9695.000         0.0855721
 9696.000         0.0853800
 9697.000         0.0851875
 9698.000         0.0849948
 9699.000         0.0848017
 9700.000         0.0846082
 9701.000         0.0844144
 9702.000         0.0842203
 9703.000         0.0840260
 9704.000         0.0838317
 9705.000         0.0836375
 9706.000         0.0834436
 9707.000         0.0832500
 9708.000         0.0830570
 9709.000         0.0828645
 9710.000         0.0826728
 9711.000         0.0824819
 9712.000         0.0822921
 9713.000         0.0821034
 9714.000         0.0819159
 9715.000         0.0817299
 9716.000         0.0815453
 9717.000         0.0813625
 9718.000         0.0811814
 9719.000         0.0810024
 9720.000         0.0808254
 9721.000         0.0806506
 9722.000         0.0804777
 9723.000         0.0803065
 9724.000         0.0801367
 9725.000         0.0799680
 9726.000         0.0798002
 9727.000         0.0796329
 9728.000         0.0794659
 9729.000         0.0792989
 9730.000         0.0791317
 9731.000         0.0789640
 9732.000         0.0787956
 9733.000         0.0786261
 9734.000         0.0784553
 9735.000         0.0782828
 9736.000         0.0781084
 9737.000         0.0779318
 9738.000         0.0777527
 9739.000         0.0775707
 9740.000         0.0773856
 9741.000         0.0771972
 9742.000         0.0770058
 9743.000         0.0768119
 9744.000         0.0766158
 9745.000         0.0764181
 9746.000         0.0762191
 9747.000         0.0760193
 9748.000         0.0758190
 9749.000         0.0756186
 9750.000         0.0754186
 9751.000         0.0752193
 9752.000         0.0750210
 9753.000         0.0748240
 9754.000         0.0746287
 9755.000         0.0744353
 9756.000         0.0742442
 9757.000         0.0740555
 9758.000         0.0738697
 9759.000         0.0736870
 9760.000         0.0735078
 9761.000         0.0733322
 9762.000         0.0731601
 9763.000         0.0729914
 9764.000         0.0728258
 9765.000         0.0726631
 9766.000         0.0725033
 9767.000         0.0723462
 9768.000         0.0721916
 9769.000         0.0720395
 9770.000         0.0718897
 9771.000         0.0717421
 9772.000         0.0715967
 9773.000         0.0714533
 9774.000         0.0713117
 9775.000         0.0711718
 9776.000         0.0710337
 9777.000         0.0708971
 9778.000         0.0707622
 9779.000         0.0706290
 9780.000         0.0704975
 9781.000         0.0703676
 9782.000         0.0702392
 9783.000         0.0701116
 9784.000         0.0699844
 9785.000         0.0698573
 9786.000         0.0697299
 9787.000         0.0696018
 9788.000         0.0694726
 9789.000         0.0693419
 9790.000         0.0692093
 9791.000         0.0690747
 9792.000         0.0689381
 9793.000         0.0688000
 9794.000         0.0686607
 9795.000         0.0685206
 9796.000         0.0683798
 9797.000         0.0682388
 9798.000         0.0680978
 9799.000         0.0679571
 9800.000         0.0678171
 9801.000         0.0676780
 9802.000         0.0675396
 9803.000         0.0674020
 9804.000         0.0672650
 9805.000         0.0671284
 9806.000         0.0669922
 9807.000         0.0668562
 9808.000         0.0667204
 9809.000         0.0665846
 9810.000         0.0664488
 9811.000         0.0663129
 9812.000         0.0661767
 9813.000         0.0660403
 9814.000         0.0659035
 9815.000         0.0657664
 9816.000         0.0656290
 9817.000         0.0654911
 9818.000         0.0653527
 9819.000         0.0652137
 9820.000         0.0650742
 9821.000         0.0649340
 9822.000         0.0647933
 9823.000         0.0646521
 9824.000         0.0645106
 9825.000         0.0643688
 9826.000         0.0642267
 9827.000         0.0640845
 9828.000         0.0639423
 9829.000         0.0638001
 9830.000         0.0636581
 9831.000         0.0635162
 9832.000         0.0633746
 9833.000         0.0632334
 9834.000         0.0630927
 9835.000         0.0629526
 9836.000         0.0628132
 9837.000         0.0626745
 9838.000         0.0625367
 9839.000         0.0623998
 9840.000         0.0622640
 9841.000         0.0621294
 9842.000         0.0619957
 9843.000         0.0618630
 9844.000         0.0617311
 9845.000         0.0615999
 9846.000         0.0614693
 9847.000         0.0613391
 9848.000         0.0612092
 9849.000         0.0610796
 9850.000         0.0609501
 9851.000         0.0608207
 9852.000         0.0606912
 9853.000         0.0605614
 9854.000         0.0604313
 9855.000         0.0603007
 9856.000         0.0601696
 9857.000         0.0600377
 9858.000         0.0599049
 9859.000         0.0597712
 9860.000         0.0596364
 9861.000         0.0595004
 9862.000         0.0593633
 9863.000         0.0592253
 9864.000         0.0590864
 9865.000         0.0589468
 9866.000         0.0588065
 9867.000         0.0586658
 9868.000         0.0585247
 9869.000         0.0583834
 9870.000         0.0582419
 9871.000         0.0581004
 9872.000         0.0579589
 9873.000         0.0578176
 9874.000         0.0576765
 9875.000         0.0575356
 9876.000         0.0573952
 9877.000         0.0572553
 9878.000         0.0571158
 9879.000         0.0569771
 9880.000         0.0568391
 9881.000         0.0567018
 9882.000         0.0565653
 9883.000         0.0564293
 9884.000         0.0562939
 9885.000         0.0561589
 9886.000         0.0560243
 9887.000         0.0558898
 9888.000         0.0557555
 9889.000         0.0556212
 9890.000         0.0554869
 9891.000         0.0553524
 9892.000         0.0552178
 9893.000         0.0550827
 9894.000         0.0549473
 9895.000         0.0548114
 9896.000         0.0546749
 9897.000         0.0545377
 9898.000         0.0543997
 9899.000         0.0542608
 9900.000         0.0541210
 9901.000         0.0539801
 9902.000         0.0538383
 9903.000         0.0536958
 9904.000         0.0535527
 9905.000         0.0534092
 9906.000         0.0532653
 9907.000         0.0531213
 9908.000         0.0529773
 9909.000         0.0528335
 9910.000         0.0526899
 9911.000         0.0525468
 9912.000         0.0524042
 9913.000         0.0522624
 9914.000         0.0521215
 9915.000         0.0519817
 9916.000         0.0518431
 9917.000         0.0517058
 9918.000         0.0515702
 9919.000         0.0514362
 9920.000         0.0513041
 9921.000         0.0511740
 9922.000         0.0510457
 9923.000         0.0509192
 9924.000         0.0507943
 9925.000         0.0506708
 9926.000         0.0505486
 9927.000         0.0504275
 9928.000         0.0503074
 9929.000         0.0501882
 9930.000         0.0500698
 9931.000         0.0499520
 9932.000         0.0498347
 9933.000         0.0497178
 9934.000         0.0496012
 9935.000         0.0494848
 9936.000         0.0493685
 9937.000         0.0492522
 9938.000         0.0491358
 9939.000         0.0490192
 9940.000         0.0489022
 9941.000         0.0487849
 9942.000         0.0486671
 9943.000         0.0485488
 9944.000         0.0484299
 9945.000         0.0483104
 9946.000         0.0481903
 9947.000         0.0480694
 9948.000         0.0479477
 9949.000         0.0478252
 9950.000         0.0477019
 9951.000         0.0475776
 9952.000         0.0474522
 9953.000         0.0473258
 9954.000         0.0471982
 9955.000         0.0470694
 9956.000         0.0469393
 9957.000         0.0468078
 9958.000         0.0466748
 9959.000         0.0465403
 9960.000         0.0464042
 9961.000         0.0462664
 9962.000         0.0461270
 9963.000         0.0459864
 9964.000         0.0458447
 9965.000         0.0457021
 9966.000         0.0455588
 9967.000         0.0454149
 9968.000         0.0452708
 9969.000         0.0451265
 9970.000         0.0449822
 9971.000         0.0448381
 9972.000         0.0446945
 9973.000         0.0445514
 9974.000         0.0444092
 9975.000         0.0442680
 9976.000         0.0441280
 9977.000         0.0439893
 9978.000         0.0438523
 9979.000         0.0437170
 9980.000         0.0435838
 9981.000         0.0434526
 9982.000         0.0433234
 9983.000         0.0431960
 9984.000         0.0430700
 9985.000         0.0429454
 9986.000         0.0428218
 9987.000         0.0426990
 9988.000         0.0425770
 9989.000         0.0424554
 9990.000         0.0423341
 9991.000         0.0422129
 9992.000         0.0420916
 9993.000         0.0419701
 9994.000         0.0418481
 9995.000         0.0417255
 9996.000         0.0416023
 9997.000         0.0414781
 9998.000         0.0413528
 9999.000         0.0412263
10000.000         0.0410985
